\\vmware-host\Shared Folders\Desktop\SiHyperlaueFinal_shielded_results\results_00025.STR
Number of grains:       1
Grain no:       1   Grainlist file index:       1    Number of peaks:      33
no   x(exp)  y(exp)  h  k  l xdev  ydev  angdev  energy  dspace  twotheta  intens   integr  xwidth   ywidth  tilt  rfactor   pearson  xcentroid  ycentroid
     2      392.62085      871.98480    -2     4    -2  -0.32920  -0.11263   0.01910  12.44807   0.11105  53.29185       57775.00      200089.33     1.80699     2.06329   178.04771     0.21452     0.00000   746.61438   746.61438
     5      746.29144      951.30060    -3     3    -1  -0.33155   0.52590   0.02142  11.59400   0.12490  50.69572       48697.00      125845.33     1.66216     1.85158   105.54847     0.19696     0.00000  1026.74219  1026.74219
    13      991.66687      299.62592    -4     2    -2   0.11547  -0.02848   0.00448   8.25878   0.11084  85.25638       49306.00       85499.33     1.23551     1.55900   178.97723     0.22895     0.00000   282.86581   282.86581
     3      546.02209      225.15593    -3     3    -3   0.12691   0.19460   0.00871   8.45288   0.10446  89.18919       39366.00       58737.33     1.21804     1.23356   176.00446     0.18050     0.00000   992.00067   992.00067
     6     1026.42151      909.54468    -5     3    -1  -0.28594   0.26987   0.01434  14.49388   0.09197  55.43162       45619.00      122723.33     1.60151     1.96126   106.90300     0.24943     0.00000   925.33490   925.33490
     7      924.97467      683.06830    -6     4    -2   0.09180   0.02076   0.00426  16.08334   0.07268  64.05980        1002.00        2192.33     1.15826     1.43008   179.19424     0.07545     0.00000    62.02608    62.02608
    36       61.80238      407.68945    -1     3    -3   0.24384   0.29038   0.01290   7.85986   0.12446  78.64958           0.00           0.00     0.00000     0.00000     0.00000     0.00000     0.00000     0.00000     0.00000
     4      426.60916      666.13660    -3     5    -3   0.45967  -0.13692   0.02538  14.36005   0.08292  62.75076       79969.00      262646.31     1.78438     1.87454     1.69892     0.23113     0.00000   546.36487   546.36487
    14      648.66687      500.25888    -6     6    -4   0.15169   0.01017   0.00790  18.19177   0.05795  72.04295       14431.00       25886.33     1.23693     1.47298     5.53624     0.19277     0.00000   258.91357   258.91357
     8      668.66681      570.52319    -5     5    -3   0.09265  -0.03077   0.00500  15.64216   0.07079  68.09050       49312.00      220525.33     1.89739     2.72145   175.41473     0.30533     0.00000   426.81842   426.81842
     9      868.06671      257.34741    -5     3    -3   0.10792   0.18771   0.00726  10.82879   0.08280  87.48470       25490.00       50849.33     1.08973     1.84660   179.97391     0.19527     0.00000   649.00641   649.00641
    11      331.58734      270.36160    -4     6    -6  -0.50039  -0.03143   0.02262  15.68256   0.05785  86.21102       33161.00       88154.33     1.65130     1.91643   111.20599     0.22890     0.00000   868.38513   868.38513
    10      282.60693      288.46924    -3     5    -5  -0.42498  -0.03120   0.01888  12.97667   0.07064  85.10103       63932.00       93309.33     1.08390     1.49409     0.01050     0.19166     0.00000   669.00031   669.00031
    19      258.60791      619.58600    -3     7    -5  -0.05635  -0.37887   0.01050  19.09129   0.05964  65.98086       23998.00       47113.33     1.24008     1.69401     7.04769     0.23841     0.00000   129.69424   129.69424
    17      858.84607      567.54590    -7     5    -3   0.17865  -0.27126   0.01151  18.24977   0.05968  69.38984        8679.00       21854.33     1.08793     1.95031   179.93214     0.29861     0.00000   464.00098   464.00098
    31      474.98486      454.85507    -6     8    -6   0.04489   0.05199   0.00284  21.96887   0.04659  74.55531         597.00        2196.33     1.24112     1.85394     6.17973     0.10072     0.00000   699.01434   699.01434
    20      463.66916      498.17865    -5     7    -5   0.34527  -0.13257   0.01845  19.31543   0.05462  71.98127       15422.00       31005.33     1.16744     1.73118   177.71986     0.22097     0.00000   439.07138   439.07138
    22      721.83521      228.64595    -8     6    -6   0.06752   0.04258   0.00331  18.98051   0.04655  89.11341       26096.00       39213.33     1.17769     1.29254   178.39423     0.20254     0.00000   753.86011   753.86011
    15      129.37692       39.62017    -3     5    -7  -0.21522   0.21989   0.01001  13.62010   0.05948  99.85746       16544.00       34345.33     1.43455     1.56161    64.81488     0.22121     0.00000   859.18909   859.18909
    18      438.69846       20.97108    -6     6    -8   0.42995   0.30851   0.01971  17.13956   0.04649 102.15998       10358.00       19917.33     1.21354     1.49099   179.26236     0.21298     0.00000   722.15051   722.15051
    30     1012.68451      601.61090    -9     5    -3   0.01785  -0.15841   0.00410  21.60266   0.05069  68.95751        5831.00       10236.33     1.12169     1.35585   176.52322     0.15968     0.00000   262.01956   262.01956
    16      753.58502      232.69943    -7     5    -5  -0.32246   0.21934   0.01578  16.22821   0.05456  88.87313        1022.00        3455.33     1.55848     1.74283   170.85020     0.11700     0.00000   475.03235   475.03235
    21      145.60483      355.19556    -3     7    -7  -0.05142  -0.03623   0.00242  18.13789   0.05245  81.32989        1429.00        3630.33     1.30231     1.48619   171.78625     0.10949     0.00000  1013.01001  1013.01001
    23      364.75223      259.68872    -5     7    -7  -0.04790  -0.08082   0.00341  18.42408   0.04893  86.88833        8033.00       21198.33     1.26343     1.89802   179.12456     0.18597     0.00000   145.90900   145.90900
    29      784.12860       52.58683   -10     6    -8  -0.03537  -0.11087   0.00371  21.07625   0.03835 100.15008        4454.00       12435.33     1.45395     1.81866    76.60241     0.21413     0.00000   823.12927   823.12927
    32      300.68146       92.98728    -6     8   -10  -0.07300   0.02135   0.00301  21.53339   0.03834  97.34176        2871.00        6515.33     1.08566     1.58326   178.10719     0.16626     0.00000   454.98120   454.98120
    24      919.91382      273.34821    -9     5    -5   0.11550  -0.10317   0.00558  19.04920   0.04744  86.62980       10986.00       18144.33     1.19827     1.30036     1.45639     0.18693     0.00000   365.12634   365.12634
    26       27.56653      162.42566    -3     7    -9   0.31776   0.03110   0.01071  18.66340   0.04597  92.52935         896.00        2675.33     1.11629     1.76097   179.16344     0.10888     0.00000   301.01379   301.01379
    25      822.85675       31.40677    -9     5    -7   0.19463  -0.14100   0.00824  18.39860   0.04356 101.32848         975.00        3988.33     1.50235     1.84540   169.64914     0.13708     0.00000   784.11151   784.11151
    27      261.68033       78.66283    -5     7    -9  -0.07682  -0.05241   0.00334  18.84917   0.04354  98.10705        4209.00       12474.33     1.61257     1.80634    45.54295     0.20115     0.00000   920.15076   920.15076
    35      698.73267      226.38223    -9     7    -7   0.05766  -0.11741   0.00457  21.74971   0.04058  89.24883           0.00           0.00     0.00000     0.00000     0.00000     0.00000     0.00000     0.00000     0.00000
    28      454.66357       47.79025    -7     7    -9   0.00478   0.00282   0.00022  19.88945   0.04053 100.53989        4355.00       10855.33     1.40170     1.73842   169.36465     0.17581     0.00000    27.90579    27.90579
    33      971.55261       85.61786   -11     5    -7  -0.35012  -0.32072   0.01566  21.19141   0.03885  97.70610         719.00        2672.33     1.46930     1.54928   117.79296     0.12027     0.00000   971.93475   971.93475
latticeparameters=   0.54325   0.54484   0.54093  89.94887  90.19257  90.25717
dpsx, dpsy: 179.00000 168.38699
dd, xcent, ycent:      150.57201      540.60303      212.87601
pitch,yaw,roll:  -0.22645   0.61642   0.00000
dev1, dev2, pixdev:   0.01234   0.01212   0.25579
deviatoric strain in crystal reference u1 u2 u3 (*10^3)
   0.45175  -2.25186  -1.67409
  -2.25186   3.37212   0.43699
  -1.67409   0.43699  -3.81081
deviatoric strain in sample reference X Y Z (*10^3)
  -0.26444  -0.86427   0.49241
  -0.86427   4.61535   0.17189
   0.49241   0.17189  -4.33785
deviatoric principal strains (*10^3):   4.76471  -0.34671  -4.40495
deviatoric strain principal axes in sample reference:
  -0.16846   0.98566   0.00950
   0.97783   0.16589   0.12779
  -0.12438  -0.03082   0.99176
deviatoric stress in crystal reference u1 u2 u3 (MPa)
       46.77738     -358.09048     -266.21307
     -358.09048      343.77896       69.48976
     -266.21307       69.48976     -386.72458
deviatoric stress in sample reference X Y Z (MPa)
      -38.59638     -199.12303      -27.18132
     -199.12303      566.06586       21.06834
      -27.18132       21.06834     -523.63770
deviatoric principal stresses (MPa):      626.42993      -97.34437     -525.25385
deviatoric stress principal axes in sample reference:
       -0.28767        0.95742        0.02434
       -0.95633       -0.28853        0.04672
        0.05175       -0.00984        0.99861
total strain in sample reference X Y Z (*10^3)
   1.51956  -0.86427   0.49241
  -0.86427   6.39934   0.17189
   0.49241   0.17189  -2.55386
total principal strains (*10^3):   6.54871   1.43729  -2.62096
total strain principal axes in sample reference:
  -0.16846   0.98566   0.00950
   0.97783   0.16589   0.12779
  -0.12438  -0.03082   0.99176
total stress in crystal reference u1 u2 u3 (MPa)
      570.41510     -358.09048     -266.21307
     -358.09048      867.41669       69.48976
     -266.21307       69.48976      136.91313
total stress in sample reference X Y Z (MPa)
      485.04132     -199.12303      -27.18132
     -199.12303     1089.70349       21.06834
      -27.18132       21.06834        0.00000
total principal stresses (MPa):     1150.06763      426.29333       -1.61613
total stress principal axes in sample reference:
       -0.28767        0.95742        0.02434
       -0.95633       -0.28853        0.04672
        0.05175       -0.00984        0.99861
dilatational strain (*10^-3):        1.78399
hydrostatic stress (MPa):      524.91498
Von Mises stress (MPa):     1008.29840
equivalent strain (*10^-3):        5.30573
equivalent stress (MPa):     1008.29840
maximum resolved shear stress:       15.90011
coordinates of a, b, c in X, Y, Z
   0.44442  -0.20244   0.23852
   0.19253   0.50579   0.06497
  -0.24573   0.03226   0.48109
coordinates of a*, b*, c* in X, Y, Z
   1.50608  -0.67795   0.81473
   0.65608   1.70075   0.22105
  -0.83529   0.10644   1.64670
