\\vmware-host\Shared Folders\Desktop\SiHyperlaueFinal_shielded_results\results_00054.STR
Number of grains:       1
Grain no:       1   Grainlist file index:       1    Number of peaks:      33
no   x(exp)  y(exp)  h  k  l xdev  ydev  angdev  energy  dspace  twotheta  intens   integr  xwidth   ywidth  tilt  rfactor   pearson  xcentroid  ycentroid
     2      392.62610      871.98407    -2     4    -2  -0.32584  -0.11228   0.01891  12.44812   0.11105  53.29183       59168.00      205380.45     1.78898     2.07059   178.36903     0.21157     0.00000   746.62457   746.62457
     5      746.31036      951.27515    -3     3    -1  -0.34009   0.53428   0.02193  11.59384   0.12490  50.69645       49252.00      127648.45     1.61594     1.93015   104.89851     0.18572     0.00000  1026.74976  1026.74976
    13      991.66992      299.61713    -4     2    -2   0.12422  -0.04970   0.00496   8.25865   0.11084  85.25815       49691.00       85464.45     1.22616     1.55932   179.22620     0.22586     0.00000   282.87302   282.87302
     3      546.03510      225.14276    -3     3    -3   0.11672   0.19447   0.00839   8.45284   0.10446  89.19006       38469.00       58182.46     1.23468     1.24061    60.79439     0.18358     0.00000   992.00641   992.00641
     6     1026.42908      909.51697    -5     3    -1  -0.27721   0.26846   0.01396  14.49354   0.09197  55.43296       46443.00      123444.45     1.61390     1.94501   159.48293     0.26047     0.00000   925.34283   925.34283
     7      924.98883      683.03790    -6     4    -2   0.09012   0.02631   0.00419  16.08304   0.07268  64.06113        1026.00        2346.46     1.15485     1.48391     0.31160     0.08184     0.00000    62.01490    62.01490
    35       61.82569      407.68817    -1     3    -3   0.22812   0.29570   0.01253   7.85993   0.12446  78.64932           0.00           0.00     0.00000     0.00000     0.00000     0.00000     0.00000     0.00000     0.00000
     4      426.62277      666.12152    -3     5    -3   0.45317  -0.12605   0.02500  14.36006   0.08292  62.75095       79574.00      262467.47     1.79747     1.87182     7.10682     0.23151     0.00000   546.37573   546.37573
    14      648.66724      500.24182    -6     6    -4   0.15789   0.01278   0.00823  18.19161   0.05795  72.04381       14672.00       25888.46     1.22046     1.46841     4.68482     0.18895     0.00000   258.91766   258.91766
     8      668.66705      570.50787    -5     5    -3   0.09974  -0.03023   0.00537  15.64201   0.07079  68.09135       47550.00      221973.45     1.90242     2.79309   175.41103     0.30482     0.00000   426.82944   426.82944
     9      868.08118      257.32379    -5     3    -3   0.10147   0.18572   0.00705  10.82865   0.08280  87.48628       24981.00       50818.46     1.08952     1.85737     0.05189     0.19430     0.00000   649.00598   649.00598
    11      331.58707      270.36151    -4     6    -6  -0.49703  -0.03647   0.02248  15.68260   0.05785  86.21135       31802.00       87518.45     1.77261     1.82681   150.83986     0.22815     0.00000   868.38660   868.38660
    10      282.61111      288.46960    -3     5    -5  -0.42559  -0.03491   0.01891  12.97671   0.07064  85.10124       62966.00       93291.45     1.08402     1.52132   179.94618     0.19420     0.00000   669.00250   669.00250
    19      258.61328      619.58917    -3     7    -5  -0.05403  -0.38096   0.01052  19.09142   0.05964  65.98075       23606.00       46792.46     1.24305     1.70272     7.01437     0.23758     0.00000   129.69002   129.69002
    17      858.86401      567.52386    -7     5    -3   0.17099  -0.27178   0.01124  18.24948   0.05968  69.39114        8759.00       22026.46     1.08837     1.95038   179.90846     0.30004     0.00000   464.01315   464.01315
    31      474.98279      454.86401    -6     8    -6   0.05216   0.03495   0.00292  21.96883   0.04659  74.55580         523.00        2304.46     1.30804     1.98953     2.01447     0.09845     0.00000   699.01324   699.01324
    20      463.66873      498.17380    -5     7    -5   0.35132  -0.13499   0.01877  19.31540   0.05462  71.98170       15300.00       30712.46     1.17005     1.72204   177.60370     0.22300     0.00000   439.07730   439.07730
    22      721.85168      228.63901    -8     6    -6   0.05588   0.02941   0.00267  18.98034   0.04655  89.11470       26218.00       38676.46     1.16784     1.27990   179.15581     0.19739     0.00000   753.87152   753.87152
    15      129.37151       39.61840    -3     5    -7  -0.20954   0.22001   0.00986  13.62019   0.05948  99.85755       16019.00       34768.46     1.46680     1.60335    30.87204     0.22537     0.00000   859.19849   859.19849
    18      438.69998       20.96590    -6     6    -8   0.42758   0.30123   0.01952  17.13957   0.04649 102.16075       10189.00       20132.46     1.22715     1.52517   179.23158     0.21512     0.00000   722.14746   722.14746
    30     1012.70154      601.58643    -9     5    -3   0.01529  -0.16225   0.00417  21.60223   0.05069  68.95907        5743.00       10140.46     1.11866     1.33912   178.86089     0.16088     0.00000   262.01105   262.01105
    16      753.58997      232.69467    -7     5    -5  -0.32201   0.20279   0.01554  16.22806   0.05456  88.87449        1018.00        3368.46     1.58288     1.76053   172.19823     0.10797     0.00000   475.04218   475.04218
    21      145.61272      355.19949    -3     7    -7  -0.05362  -0.03879   0.00254  18.13802   0.05245  81.32979        1353.00        3592.46     1.34405     1.54474   170.45708     0.10889     0.00000  1013.00769  1013.00769
    23      364.74915      259.68396    -5     7    -7  -0.04197  -0.08243   0.00328  18.42410   0.04893  86.88874        8040.00       20770.46     1.24453     1.90049   179.15674     0.17880     0.00000   145.92390   145.92390
    29      784.11847       52.53347   -10     6    -8  -0.02136  -0.08318   0.00270  21.07610   0.03835 100.15163        4475.00       12464.46     1.44693     1.83100    80.88760     0.21641     0.00000   823.12585   823.12585
    32      300.67706       92.97730    -6     8   -10  -0.06829   0.02492   0.00286  21.53345   0.03834  97.34216        2995.00        6435.46     1.08092     1.46710     1.24347     0.16501     0.00000   454.97195   454.97195
    24      919.90497      273.32785    -9     5    -5   0.13383  -0.11031   0.00631  19.04895   0.04744  86.63146       10871.00       17740.46     1.20355     1.29509     1.12150     0.17876     0.00000   365.09525   365.09525
    26       27.57382      162.44295    -3     7    -9   0.31436   0.01645   0.01058  18.66356   0.04597  92.52921         889.00        2742.46     1.12691     1.77849   176.28712     0.10869     0.00000   300.99973   300.99973
    25      822.85974       31.39918    -9     5    -7   0.19613  -0.16120   0.00858  18.39846   0.04356 101.33013         944.00        4102.46     1.62946     1.88627    82.92683     0.14338     0.00000   784.07477   784.07477
    27      261.67880       78.66507    -5     7    -9  -0.07511  -0.05998   0.00339  18.84924   0.04354  98.10738        4165.00       12586.46     1.61656     1.81016    19.98036     0.20162     0.00000   920.15021   920.15021
    36      698.75232      226.30396    -9     7    -7   0.04246  -0.05835   0.00267  21.74954   0.04058  89.25007           0.00           0.00     0.00000     0.00000     0.00000     0.00000     0.00000     0.00000     0.00000
    28      454.66635       47.74492    -7     7    -9   0.00167   0.03558   0.00112  19.88944   0.04053 100.54068        4433.00       10874.46     1.38823     1.71199   169.27003     0.17755     0.00000    27.91341    27.91341
    33      971.56885       85.59122   -11     5    -7  -0.35712  -0.32709   0.01597  21.19117   0.03885  97.70797         687.00        2591.46     1.31635     1.67022    12.17145     0.11670     0.00000   971.97662   971.97662
latticeparameters=   0.54325   0.54484   0.54093  89.94944  90.19303  90.25780
dpsx, dpsy: 179.00000 168.38699
dd, xcent, ycent:      150.57201      540.60303      212.87601
pitch,yaw,roll:  -0.22645   0.61642   0.00000
dev1, dev2, pixdev:   0.01228   0.01208   0.25418
deviatoric strain in crystal reference u1 u2 u3 (*10^3)
   0.45987  -2.25735  -1.67810
  -2.25735   3.36935   0.43202
  -1.67810   0.43202  -3.81614
deviatoric strain in sample reference X Y Z (*10^3)
  -0.25906  -0.86991   0.49255
  -0.86991   4.61748   0.16507
   0.49255   0.16507  -4.34535
deviatoric principal strains (*10^3):   4.76870  -0.34373  -4.41190
deviatoric strain principal axes in sample reference:
  -0.16966   0.98547   0.00868
   0.97768   0.16719   0.12724
  -0.12394  -0.03007   0.99183
deviatoric stress in crystal reference u1 u2 u3 (MPa)
       47.60414     -358.96365     -266.85217
     -358.96365      343.49808       68.69907
     -266.85217       68.69907     -387.26611
deviatoric stress in sample reference X Y Z (MPa)
      -37.96601     -199.83136      -27.44473
     -199.83136      566.47748       20.09140
      -27.44473       20.09140     -524.67535
deviatoric principal stresses (MPa):      627.20844      -97.07692     -526.29541
deviatoric stress principal axes in sample reference:
       -0.28853        0.95718        0.02357
       -0.95603       -0.28936        0.04777
        0.05254       -0.00875        0.99858
total strain in sample reference X Y Z (*10^3)
   1.52846  -0.86991   0.49255
  -0.86991   6.40501   0.16507
   0.49255   0.16507  -2.55782
total principal strains (*10^3):   6.55623   1.44380  -2.62437
total strain principal axes in sample reference:
  -0.16966   0.98547   0.00868
   0.97768   0.16719   0.12724
  -0.12394  -0.03007   0.99183
total stress in crystal reference u1 u2 u3 (MPa)
      572.27948     -358.96365     -266.85217
     -358.96365      868.17340       68.69907
     -266.85217       68.69907      137.40921
total stress in sample reference X Y Z (MPa)
      486.70932     -199.83136      -27.44473
     -199.83136     1091.15283       20.09140
      -27.44473       20.09140        0.00000
total principal stresses (MPa):     1151.88367      427.59845       -1.62008
total stress principal axes in sample reference:
       -0.28853        0.95718        0.02357
       -0.95603       -0.28936        0.04777
        0.05254       -0.00875        0.99858
dilatational strain (*10^-3):        1.78753
hydrostatic stress (MPa):      525.95404
Von Mises stress (MPa):     1009.79926
equivalent strain (*10^-3):        5.31184
equivalent stress (MPa):     1009.79926
maximum resolved shear stress:       16.28760
coordinates of a, b, c in X, Y, Z
   0.44443  -0.20244   0.23853
   0.19252   0.50580   0.06497
  -0.24574   0.03226   0.48109
coordinates of a*, b*, c* in X, Y, Z
   1.50608  -0.67791   0.81476
   0.65605   1.70078   0.22107
  -0.83531   0.10644   1.64671
