\\vmware-host\Shared Folders\Desktop\SiHyperlaueFinal_shielded_results\results_00091.STR
Number of grains:       1
Grain no:       1   Grainlist file index:       1    Number of peaks:      33
no   x(exp)  y(exp)  h  k  l xdev  ydev  angdev  energy  dspace  twotheta  intens   integr  xwidth   ywidth  tilt  rfactor   pearson  xcentroid  ycentroid
     2      392.63629      871.97321    -2     4    -2  -0.32403  -0.10304   0.01877  12.44711   0.11105  53.29184       41819.00      139237.70     1.72623     2.05428   178.60416     0.21210     0.00000   746.66199   746.66199
     5      746.36218      951.25818    -3     3    -1  -0.36412   0.52763   0.02307  11.59295   0.12490  50.69757       40244.00      101654.70     1.73410     1.74681    90.44299     0.21497     0.00000  1026.77209  1026.77209
    13      991.68011      299.61691    -4     2    -2   0.12571  -0.06694   0.00519   8.25842   0.11084  85.25919       38433.00       65653.70     1.21747     1.55177   179.49944     0.21883     0.00000   282.88507   282.88507
     3      546.05865      225.13655    -3     3    -3   0.10479   0.19106   0.00795   8.45243   0.10446  89.19070       29843.00       46012.71     1.24160     1.24244    26.88589     0.18432     0.00000   992.03107   992.03107
     7     1026.46375      909.49084    -5     3    -1  -0.28238   0.25838   0.01408  14.49265   0.09197  55.43476         439.00        1412.71     1.20649     1.44546     6.91336     0.07151     0.00000    61.99755    61.99755
     6      925.01624      683.02148    -6     4    -2   0.08797   0.01651   0.00408  16.08215   0.07268  64.06265       39730.00      104755.70     1.70275     1.88291    61.88670     0.24284     0.00000   925.35730   925.35730
    36       61.79552      407.69159    -1     3    -3   0.25267   0.30119   0.01337   7.85943   0.12447  78.64885           0.00           0.00     0.00000     0.00000     0.00000     0.00000     0.00000     0.00000     0.00000
     4      426.63950      666.11066    -3     5    -3   0.44918  -0.12440   0.02478  14.35893   0.08292  62.75139       56081.00      189031.70     1.81648     1.87054    11.73959     0.22858     0.00000   546.38275   546.38275
    14      648.66730      500.21454    -6     6    -4   0.17664   0.02332   0.00922  18.19048   0.05795  72.04485       13263.00       23171.71     1.21269     1.45253     4.61298     0.18302     0.00000   258.92154   258.92154
     8      668.66693      570.49304    -5     5    -3   0.12033  -0.03346   0.00646  15.64099   0.07079  68.09244       37202.00      180704.70     1.90436     2.87011   175.45085     0.30795     0.00000   426.85889   426.85889
    11      868.11993      257.27881    -5     3    -3   0.07589   0.21649   0.00731  10.82830   0.08280  87.48717       19966.00       57940.71     1.71724     1.95652   159.22083     0.21690     0.00000   868.38147   868.38147
    10      331.59439      270.35977    -4     6    -6  -0.49818  -0.03996   0.02254  15.68167   0.05785  86.21168       52362.00       78487.70     1.08473     1.54647     0.04678     0.19228     0.00000   669.00201   669.00201
     9      282.61444      288.47379    -3     5    -5  -0.42449  -0.04269   0.01889  12.97593   0.07065  85.10146       21438.00       45248.71     1.08966     1.87251   179.95227     0.19227     0.00000   649.00470   649.00470
    19      258.61749      619.59070    -3     7    -5  -0.05435  -0.38206   0.01055  19.08998   0.05964  65.98070       19302.00       37762.71     1.23412     1.68566     6.79961     0.22989     0.00000   129.72401   129.72401
    17      858.88123      567.49976    -7     5    -3   0.17642  -0.26968   0.01140  18.24852   0.05968  69.39249        8091.00       19847.71     1.08858     1.94853   179.92165     0.30014     0.00000   464.02951   464.02951
    31      475.02518      454.84262    -6     8    -6   0.02274   0.04449   0.00181  21.96734   0.04659  74.55651         495.00        2153.71     1.28744     2.02849     6.68741     0.09784     0.00000   699.01709   699.01709
    20      463.66968      498.15302    -5     7    -5   0.36337  -0.12591   0.01935  19.31404   0.05462  71.98237       13477.00       27271.71     1.17360     1.71866   177.59621     0.21995     0.00000   439.07227   439.07227
    22      721.85992      228.63455    -8     6    -6   0.06108   0.02207   0.00282  18.97959   0.04655  89.11547       22715.00       32986.71     1.16088     1.26799   177.99466     0.18660     0.00000   753.87915   753.87915
    15      129.38309       39.62247    -3     5    -7  -0.22114   0.22294   0.01023  13.61956   0.05948  99.85715       13413.00       30342.71     1.54717     1.60260   117.33618     0.22255     0.00000   859.20459   859.20459
    18      438.70090       20.96123    -6     6    -8   0.43306   0.30491   0.01977  17.13889   0.04649 102.16083        8991.00       18113.71     1.23394     1.54200   177.46861     0.21257     0.00000   722.15607   722.15607
    30     1012.69647      601.55969    -9     5    -3   0.04227  -0.16238   0.00458  21.60126   0.05069  68.96063        5184.00        9066.71     1.12175     1.35605   176.94272     0.14979     0.00000   262.00140   262.00140
    16      753.59454      232.69093    -7     5    -5  -0.31306   0.19430   0.01507  16.22744   0.05456  88.87528         932.00        3180.71     1.53379     1.79293   170.80930     0.10863     0.00000   475.08359   475.08359
    21      145.61440      355.20840    -3     7    -7  -0.05666  -0.04467   0.00273  18.13687   0.05245  81.32962        1275.00        3441.71     1.32058     1.56987   172.59663     0.10889     0.00000  1012.99811  1012.99811
    23      364.76154      259.68542    -5     7    -7  -0.04710  -0.09008   0.00362  18.42304   0.04893  86.88914        7165.00       18415.71     1.24116     1.89381   179.49091     0.17542     0.00000   145.92233   145.92233
    29      784.15857       52.52348   -10     6    -8  -0.05454  -0.07880   0.00328  21.07557   0.03836 100.15196        3795.00       11025.71     1.48724     1.88587    78.06864     0.19895     0.00000   823.12701   823.12701
    33      300.68088       92.99857    -6     8   -10  -0.06775   0.00320   0.00272  21.53242   0.03834  97.34220         611.00        2615.71     1.38256     1.82892    15.78689     0.12210     0.00000   971.98560   971.98560
    24      919.94568      273.26401    -9     5    -5   0.10581  -0.06187   0.00464  19.04837   0.04744  86.63241        9381.00       16078.71     1.20568     1.32314     0.98331     0.18550     0.00000   365.11084   365.11084
    26       27.57557      162.43877    -3     7    -9   0.30824   0.03001   0.01039  18.66259   0.04597  92.52867         834.00        2468.71     1.12809     1.82103   177.34315     0.09631     0.00000   301.01974   301.01974
    25      822.88062       31.36794    -9     5    -7   0.18045  -0.13479   0.00769  18.39806   0.04356 101.33040         835.00        3823.71     1.68200     1.89322    81.68764     0.13475     0.00000   784.08173   784.08173
    27      261.68173       78.65764    -5     7    -9  -0.07473  -0.05138   0.00326  18.84834   0.04354  98.10732        3417.00       11044.71     1.75120     1.80460   102.92227     0.17885     0.00000   920.16949   920.16949
    35      698.73602      226.34531    -9     7    -7   0.07210  -0.11121   0.00481  21.74865   0.04058  89.25082           0.00           0.00     0.00000     0.00000     0.00000     0.00000     0.00000     0.00000     0.00000
    28      454.66309       47.74755    -7     7    -9   0.01196   0.03061   0.00108  19.88864   0.04053 100.54084        3889.00        9688.71     1.39577     1.70037   169.39786     0.17278     0.00000    27.91311    27.91311
    32      971.54034       85.59431   -11     5    -7  -0.32599  -0.33878   0.01534  21.19080   0.03885  97.70846        2852.00        5971.71     1.08536     1.44937     0.64259     0.15395     0.00000   454.99863   454.99863
latticeparameters=   0.54322   0.54487   0.54092  89.94984  90.19496  90.25861
dpsx, dpsy: 179.00000 168.38699
dd, xcent, ycent:      150.57201      540.60303      212.87601
pitch,yaw,roll:  -0.22645   0.61642   0.00000
dev1, dev2, pixdev:   0.01232   0.01218   0.25577
deviatoric strain in crystal reference u1 u2 u3 (*10^3)
   0.41189  -2.26456  -1.69484
  -2.26456   3.43388   0.42839
  -1.69484   0.42839  -3.83245
deviatoric strain in sample reference X Y Z (*10^3)
  -0.27696  -0.84020   0.47306
  -0.84020   4.67145   0.17922
   0.47306   0.17922  -4.38116
deviatoric principal strains (*10^3):   4.81130  -0.35467  -4.44330
deviatoric strain principal axes in sample reference:
  -0.16192   0.98674   0.01091
   0.97962   0.15940   0.12219
  -0.11883  -0.03047   0.99245
deviatoric stress in crystal reference u1 u2 u3 (MPa)
       42.74189     -360.11063     -269.51291
     -360.11063      350.07840       68.12309
     -269.51291       68.12309     -388.90771
deviatoric stress in sample reference X Y Z (MPa)
      -39.23307     -197.18867      -30.09818
     -197.18867      572.28711       21.50882
      -30.09818       21.50882     -529.14148
deviatoric principal stresses (MPa):      631.08954      -96.10662     -531.07037
deviatoric stress principal axes in sample reference:
       -0.28316        0.95874        0.02512
       -0.95735       -0.28412        0.05243
        0.05740       -0.00920        0.99831
total strain in sample reference X Y Z (*10^3)
   1.52579  -0.84020   0.47306
  -0.84020   6.47419   0.17922
   0.47306   0.17922  -2.57841
total principal strains (*10^3):   6.61405   1.44807  -2.64056
total strain principal axes in sample reference:
  -0.16192   0.98674   0.01091
   0.97962   0.15940   0.12219
  -0.11883  -0.03047   0.99245
total stress in crystal reference u1 u2 u3 (MPa)
      571.88336     -360.11063     -269.51291
     -360.11063      879.21985       68.12309
     -269.51291       68.12309      140.23373
total stress in sample reference X Y Z (MPa)
      489.90839     -197.18867      -30.09818
     -197.18867     1101.42859       21.50882
      -30.09818       21.50882        0.00000
total principal stresses (MPa):     1160.23096      433.03485       -1.92890
total stress principal axes in sample reference:
       -0.28316        0.95874        0.02512
       -0.95735       -0.28412        0.05243
        0.05740       -0.00920        0.99831
dilatational strain (*10^-3):        1.80274
hydrostatic stress (MPa):      530.44568
Von Mises stress (MPa):     1017.01117
equivalent strain (*10^-3):        5.35520
equivalent stress (MPa):     1017.01117
maximum resolved shear stress:       12.48229
coordinates of a, b, c in X, Y, Z
   0.44438  -0.20243   0.23850
   0.19252   0.50581   0.06499
  -0.24575   0.03224   0.48105
coordinates of a*, b*, c* in X, Y, Z
   1.50604  -0.67793   0.81482
   0.65597   1.70058   0.22115
  -0.83532   0.10636   1.64665
