\\vmware-host\Shared Folders\Desktop\SiHyperlaueFinal_shielded_results\results_00110.STR
Number of grains:       1
Grain no:       1   Grainlist file index:       1    Number of peaks:      32
no   x(exp)  y(exp)  h  k  l xdev  ydev  angdev  energy  dspace  twotheta  intens   integr  xwidth   ywidth  tilt  rfactor   pearson  xcentroid  ycentroid
     2      392.64102      871.99500    -2     4    -2  -0.29982  -0.11488   0.01745  12.44989   0.11103  53.29130       29035.00       92630.93     1.69176     2.04102   178.47578     0.21272     0.00000   746.67822   746.67822
     5      746.38495      951.28583    -3     3    -1  -0.39010   0.50197   0.02417  11.59466   0.12489  50.69747       32524.00       81099.93     1.70463     1.77563    41.36592     0.20545     0.00000  1026.77869  1026.77869
    14      991.68396      299.61972    -4     2    -2   0.14417  -0.09721   0.00620   8.25871   0.11083  85.26083       11849.00       27590.93     1.50178     1.68028    49.12269     0.21490     0.00000   859.20862   859.20862
     4      546.07593      225.15173    -3     3    -3   0.08410   0.19406   0.00747   8.45353   0.10445  89.18951       39528.00      138607.92     1.82885     1.87695    12.07139     0.22453     0.00000   546.38519   546.38519
     7     1026.45825      909.49237    -5     3    -1  -0.26334   0.25934   0.01330  14.49377   0.09196  55.43485       30231.00      147004.92     1.90458     2.90887   175.31554     0.31125     0.00000   426.88098   426.88098
     6      925.01428      683.00787    -6     4    -2   0.09516   0.02824   0.00443  16.08352   0.07267  64.06279       33542.00       88345.93     1.68412     1.88092   143.76399     0.23784     0.00000   925.34601   925.34601
     3      426.64743      666.11346    -3     5    -3   0.46053  -0.10046   0.02536  14.36198   0.08291  62.74996       24077.00       37731.93     1.23886     1.24798   173.39551     0.18410     0.00000   992.02649   992.02649
    12      648.66754      500.20862    -6     6    -4   0.17391   0.04523   0.00914  18.19310   0.05794  72.04391       30372.00       51485.93     1.21415     1.53460   179.68808     0.21228     0.00000   282.89838   282.89838
     8      668.66711      570.49670    -5     5    -3   0.11763  -0.02234   0.00628  15.64327   0.07078  68.09161       18946.00       40289.93     1.08967     1.87759     0.00000     0.18799     0.00000   649.00641   649.00641
    13      868.11609      257.29785    -5     3    -3   0.08564   0.17900   0.00651  10.82892   0.08279  87.48831       12225.00       21194.93     1.19955     1.44278     3.75630     0.17850     0.00000   258.93680   258.93680
     9      331.59995      270.37073    -4     6    -6  -0.48653  -0.01179   0.02197  15.68447   0.05784  86.20920       45068.00       67426.93     1.08472     1.53459   179.95827     0.19232     0.00000   669.00110   669.00110
    10      282.61591      288.48224    -3     5    -5  -0.40107  -0.00917   0.01778  12.97836   0.07064  85.09882       12765.00       37735.93     1.80275     1.85579    94.02724     0.20659     0.00000   868.35022   868.35022
    19      258.62216      619.59460    -3     7    -5  -0.01377  -0.35716   0.00940  19.09436   0.05963  65.97891       12052.00       24274.93     1.17457     1.71331   177.64006     0.21321     0.00000   439.08063   439.08063
    17      858.89923      567.50024    -7     5    -3   0.15960  -0.27123   0.01082  18.25020   0.05967  69.39256        8122.00       16558.93     1.23283     1.57752   178.05138     0.20398     0.00000   722.16858   722.16858
    31      475.03235      454.85083    -6     8    -6   0.02374   0.06649   0.00239  21.97132   0.04659  74.55467        2576.00        5380.93     1.07934     1.50941   179.09328     0.14200     0.00000   455.01157   455.01157
    20      463.67001      498.15970    -5     7    -5   0.37353  -0.10198   0.01977  19.31769   0.05461  71.98056        1194.00        3236.93     1.32334     1.54728   171.73817     0.10517     0.00000  1013.01746  1013.01746
    21      721.87830      228.63631    -8     6    -6   0.03840   0.01736   0.00180  18.98127   0.04655  89.11565       19884.00       28893.93     1.15448     1.26237   179.27252     0.18376     0.00000   753.89111   753.89111
    15      129.38150       39.62840    -3     5    -7  -0.19202   0.26588   0.01038  13.62174   0.05947  99.85449         846.00        3032.93     1.56447     1.81237   169.98485     0.10663     0.00000   475.06656   475.06656
    18      438.70169       20.95508    -6     6    -8   0.42603   0.32876   0.01988  17.14092   0.04649 102.15972       15603.00       30233.93     1.21950     1.68862     6.10730     0.21435     0.00000   129.72932   129.72932
    30     1012.70648      601.56195    -9     5    -3   0.04986  -0.17274   0.00498  21.60250   0.05069  68.96121         480.00        2134.93     1.28492     2.01484     7.00159     0.09988     0.00000   699.01709   699.01709
    16      753.59656      232.68929    -7     5    -5  -0.31804   0.18938   0.01521  16.22876   0.05456  88.87569        7222.00       17757.93     1.09089     1.95168     0.03783     0.29653     0.00000   464.02133   464.02133
    22      145.61154      355.21051    -3     7    -7  -0.00160  -0.00291   0.00011  18.14064   0.05244  81.32690        6354.00       16458.93     1.24954     1.89158   179.78888     0.17139     0.00000   145.91898   145.91898
    23      364.76706      259.68878    -5     7    -7  -0.04005  -0.05679   0.00259  18.42620   0.04893  86.88679        8607.00       14691.93     1.20345     1.33525     0.52934     0.17758     0.00000   365.09933   365.09933
    29      784.14325       52.52498   -10     6    -8  -0.03946  -0.10791   0.00369  21.07667   0.03835 100.15364        4889.00        8555.93     1.11646     1.35703   177.16885     0.14519     0.00000   262.00916   262.00916
    32      300.67813       93.00155    -6     8   -10  -0.05528   0.03729   0.00252  21.53569   0.03833  97.33993         575.00        2314.93     1.37214     1.67151     9.11121     0.11006     0.00000   971.97961   971.97961
    25      919.95898      273.25565    -9     5    -5   0.10443  -0.07631   0.00478  19.04926   0.04744  86.63379         765.00        2442.93     1.12115     1.79831   178.94981     0.10162     0.00000   300.98849   300.98849
    26       27.57931      162.44341    -3     7    -9   0.36214   0.07860   0.01234  18.66602   0.04597  92.52578        3054.00       10244.93     1.76935     1.81349   101.26382     0.17402     0.00000   920.15308   920.15308
    24      822.87579       31.35467    -9     5    -7   0.18933  -0.15745   0.00831  18.39883   0.04356 101.33254         782.00        3692.93     1.65647     1.87714    82.30907     0.13731     0.00000   784.07776   784.07776
    27      261.67892       78.66883    -5     7    -9  -0.05878  -0.02267   0.00237  18.85125   0.04354  98.10493        3531.00        8911.93     1.38793     1.70460   169.10818     0.16839     0.00000    27.91984    27.91984
    35      698.75085      226.32974    -9     7    -7   0.05226  -0.09586   0.00386  21.75069   0.04057  89.25083           0.00           0.00     0.00000     0.00000     0.00000     0.00000     0.00000     0.00000     0.00000
    28      454.66769       47.77698    -7     7    -9   0.00164   0.01904   0.00060  19.89102   0.04053 100.53971        3450.00       10303.93     1.51005     1.85770    84.91430     0.19832     0.00000   823.12933   823.12933
    33      971.55890       85.52846   -11     5    -7  -0.31896  -0.32230   0.01483  21.19122   0.03885  97.71123         610.00        2434.22     1.36405     1.79847    16.01220     0.11308     0.00000   971.97046   971.97046
latticeparameters=   0.54329   0.54478   0.54094  89.94739  90.19011  90.25701
dpsx, dpsy: 179.00000 168.38699
dd, xcent, ycent:      150.57201      540.60303      212.87601
pitch,yaw,roll:  -0.22645   0.61642   0.00000
dev1, dev2, pixdev:   0.01226   0.01207   0.24692
deviatoric strain in crystal reference u1 u2 u3 (*10^3)
   0.53738  -2.25022  -1.65272
  -2.25022   3.27306   0.44996
  -1.65272   0.44996  -3.79772
deviatoric strain in sample reference X Y Z (*10^3)
  -0.23593  -0.92360   0.52898
  -0.92360   4.54139   0.15178
   0.52898   0.15178  -4.29274
deviatoric principal strains (*10^3):   4.71404  -0.33250  -4.36882
deviatoric strain principal axes in sample reference:
  -0.18282   0.98313   0.00583
   0.97402   0.18031   0.13701
  -0.13365  -0.03073   0.99055
deviatoric stress in crystal reference u1 u2 u3 (MPa)
       55.46461     -357.83047     -262.81610
     -357.83047      333.68307       71.55322
     -262.81610       71.55322     -385.41446
deviatoric stress in sample reference X Y Z (MPa)
      -36.77054     -205.15118      -22.58444
     -205.15118      558.45502       19.27403
      -22.58444       19.27403     -517.95123
deviatoric principal stresses (MPa):      622.86505     -100.02871     -519.10309
deviatoric stress principal axes in sample reference:
       -0.29759        0.95444        0.02202
       -0.95374       -0.29824        0.03779
        0.04263       -0.00975        0.99904
total strain in sample reference X Y Z (*10^3)
   1.52869  -0.92360   0.52898
  -0.92360   6.30601   0.15178
   0.52898   0.15178  -2.52812
total principal strains (*10^3):   6.47866   1.43212  -2.60420
total strain principal axes in sample reference:
  -0.18282   0.98313   0.00583
   0.97402   0.18031   0.13701
  -0.13365  -0.03073   0.99055
total stress in crystal reference u1 u2 u3 (MPa)
      573.41583     -357.83047     -262.81610
     -357.83047      851.63434       71.55322
     -262.81610       71.55322      132.53677
total stress in sample reference X Y Z (MPa)
      481.18069     -205.15118      -22.58444
     -205.15118     1076.40625       19.27403
      -22.58444       19.27403        0.00000
total principal stresses (MPa):     1140.81616      417.92258       -1.15186
total stress principal axes in sample reference:
       -0.29759        0.95444        0.02202
       -0.95374       -0.29824        0.03779
        0.04263       -0.00975        0.99904
dilatational strain (*10^-3):        1.76462
hydrostatic stress (MPa):      519.19568
Von Mises stress (MPa):     1000.57233
equivalent strain (*10^-3):        5.25479
equivalent stress (MPa):     1000.57233
maximum resolved shear stress:       22.99772
coordinates of a, b, c in X, Y, Z
   0.44451  -0.20240   0.23859
   0.19246   0.50581   0.06495
  -0.24576   0.03227   0.48114
coordinates of a*, b*, c* in X, Y, Z
   1.50616  -0.67771   0.81477
   0.65598   1.70116   0.22098
  -0.83545   0.10644   1.64677
