\\vmware-host\Shared Folders\Desktop\SiHyperlaueFinal_shielded_results\results_00103.STR
Number of grains:       1
Grain no:       1   Grainlist file index:       1    Number of peaks:      32
no   x(exp)  y(exp)  h  k  l xdev  ydev  angdev  energy  dspace  twotheta  intens   integr  xwidth   ywidth  tilt  rfactor   pearson  xcentroid  ycentroid
     2      392.63910      871.98309    -2     4    -2  -0.29926  -0.10814   0.01739  12.44964   0.11103  53.29152       30320.00       97868.47     1.70051     2.04097   178.51997     0.21157     0.00000   746.67639   746.67639
     5      746.37952      951.27509    -3     3    -1  -0.38268   0.51174   0.02387  11.59449   0.12489  50.69752       33640.00       84313.47     1.68561     1.78415    80.53090     0.21051     0.00000  1026.77539  1026.77539
    14      991.68451      299.61777    -4     2    -2   0.13668  -0.09865   0.00597   8.25872   0.11083  85.26101       12038.00       27885.47     1.51340     1.66359    19.74698     0.21784     0.00000   859.20013   859.20013
     4      546.06384      225.14912    -3     3    -3   0.09471   0.19261   0.00771   8.45352   0.10445  89.18977       40886.00      140828.47     1.82059     1.87546     9.97687     0.22528     0.00000   546.37415   546.37415
     7     1026.46338      909.49249    -5     3    -1  -0.26782   0.25712   0.01347  14.49364   0.09196  55.43494       30780.00      149296.47     1.90606     2.89793   175.48079     0.30924     0.00000   426.87787   426.87787
     6      925.01495      683.00610    -6     4    -2   0.09412   0.02589   0.00438  16.08338   0.07267  64.06299       34484.00       91011.47     1.62443     1.93615   103.18830     0.25345     0.00000   925.35144   925.35144
     3      426.64410      666.11560    -3     5    -3   0.46292  -0.10950   0.02550  14.36173   0.08291  62.75032       24629.00       38361.47     1.24103     1.24221   144.10083     0.18406     0.00000   992.02814   992.02814
    12      648.66791      500.20508    -6     6    -4   0.17314   0.04316   0.00909  18.19292   0.05794  72.04424       30827.00       52438.47     1.21676     1.54288   179.38037     0.21280     0.00000   282.89453   282.89453
     8      668.66687      570.49078    -5     5    -3   0.11786  -0.02191   0.00629  15.64309   0.07079  68.09191       19134.00       40734.47     1.08932     1.87989     0.00000     0.18735     0.00000   649.00867   649.00867
    13      868.12756      257.27240    -5     3    -3   0.06930   0.20150   0.00678  10.82893   0.08279  87.48848       12103.00       21079.47     1.20103     1.44614     3.85097     0.17859     0.00000   258.93005   258.93005
     9      331.59534      270.36621    -4     6    -6  -0.48273  -0.01325   0.02180  15.68440   0.05784  86.20957       45135.00       67927.47     1.08453     1.54741   179.97226     0.19216     0.00000   669.00500   669.00500
    10      282.61478      288.47781    -3     5    -5  -0.40077  -0.01122   0.01777  12.97829   0.07064  85.09923       13196.00       39147.47     1.77955     1.90312   120.09998     0.19739     0.00000   868.35156   868.35156
    19      258.62186      619.59790    -3     7    -5  -0.01579  -0.36852   0.00972  19.09405   0.05963  65.97934       11961.00       24377.47     1.17815     1.73391   177.78488     0.21033     0.00000   439.09018   439.09018
    17      858.89441      567.49573    -7     5    -3   0.16354  -0.27135   0.01097  18.25006   0.05967  69.39280        8106.00       16572.47     1.23436     1.57374   177.69505     0.20502     0.00000   722.17560   722.17560
    30      475.05035      454.84470    -6     8    -6   0.00495   0.06599   0.00202  21.97109   0.04659  74.55508         479.00        2034.47     1.25615     1.99519     5.62543     0.09330     0.00000   699.01141   699.01141
    20      463.66968      498.15359    -5     7    -5   0.37308  -0.10272   0.01975  19.31746   0.05461  71.98096        1091.00        3131.47     1.36447     1.59710   169.20847     0.10478     0.00000  1012.98663  1012.98663
    22      721.87579      228.63417    -8     6    -6   0.03793   0.01639   0.00178  18.98129   0.04655  89.11585        6579.00       16869.47     1.23840     1.89337   179.52216     0.17025     0.00000   145.93471   145.93471
    15      129.38593       39.62591    -3     5    -7  -0.19421   0.26540   0.01042  13.62180   0.05947  99.85467         865.00        3223.47     1.50795     1.81518   177.05275     0.11391     0.00000   475.02682   475.02682
    18      438.70331       20.97311    -6     6    -8   0.42335   0.31008   0.01950  17.14103   0.04649 102.15976       15797.00       30696.47     1.22561     1.68035     6.50149     0.21953     0.00000   129.73415   129.73415
    31     1012.71741      601.54279    -9     5    -3   0.03634  -0.15833   0.00438  21.60239   0.05069  68.96142        2499.00        5559.47     1.09329     1.52083     3.27879     0.15257     0.00000   454.98135   454.98135
    16      753.59686      232.68924    -7     5    -5  -0.32167   0.18641   0.01532  16.22878   0.05456  88.87588        7346.00       17916.47     1.08925     1.94550     0.09500     0.29929     0.00000   464.00604   464.00604
    21      145.61537      355.20868    -3     7    -7  -0.00668  -0.00896   0.00039  18.14051   0.05244  81.32737       20002.00       29309.47     1.15575     1.26332   179.18427     0.18694     0.00000   753.88641   753.88641
    23      364.75589      259.68634    -5     7    -7  -0.02971  -0.05999   0.00236  18.42613   0.04893  86.88715        8779.00       14802.47     1.19999     1.30821     1.46791     0.17942     0.00000   365.09723   365.09723
    29      784.14185       52.53970   -10     6    -8  -0.04432  -0.12206   0.00417  21.07683   0.03835 100.15362        4735.00        8399.47     1.12109     1.36134   177.20280     0.14649     0.00000   261.99994   261.99994
    33      300.68707       92.94325    -6     8   -10  -0.06414   0.09240   0.00389  21.53576   0.03833  97.34013         610.00        2434.22     1.36405     1.79847    16.01220     0.11308     0.00000   971.97046   971.97046
    24      919.94000      273.24936    -9     5    -5   0.11772  -0.07309   0.00521  19.04929   0.04744  86.63397         795.00        3545.47     1.59748     1.83504   155.54465     0.13369     0.00000   784.06189   784.06189
    26       27.57551      162.44472    -3     7    -9   0.36752   0.07116   0.01249  18.66603   0.04597  92.52613        3028.00       10187.47     1.67448     1.87762    15.94338     0.17631     0.00000   920.16290   920.16290
    25      822.86774       31.35685    -9     5    -7   0.18986  -0.15834   0.00834  18.39899   0.04356 101.33248         823.00        2344.47     1.14065     1.71965   175.78639     0.09433     0.00000   301.02145   301.02145
    27      261.67990       78.66244    -5     7    -9  -0.05926  -0.01939   0.00236  18.85132   0.04354  98.10512        3580.00        8932.47     1.39527     1.69418   169.08044     0.16715     0.00000    27.93653    27.93653
    35      698.72644      226.33405    -9     7    -7   0.07394  -0.10336   0.00469  21.75070   0.04057  89.25103           0.00           0.00     0.00000     0.00000     0.00000     0.00000     0.00000     0.00000     0.00000
    28      454.66327       47.76801    -7     7    -9   0.00484   0.02679   0.00086  19.89113   0.04052 100.53978        3461.00       10166.47     1.59885     1.76019    93.96490     0.19982     0.00000   823.10052   823.10052
    32      971.53735       85.55604   -11     5    -7  -0.30812  -0.34951   0.01508  21.19138   0.03885  97.71124         612.00        2604.47     1.39465     1.58860     0.00000     0.12234     0.00000   971.98511   971.98511
latticeparameters=   0.54329   0.54480   0.54093  89.94704  90.19144  90.25744
dpsx, dpsy: 179.00000 168.38699
dd, xcent, ycent:      150.57201      540.60303      212.87601
pitch,yaw,roll:  -0.22645   0.61642   0.00000
dev1, dev2, pixdev:   0.01228   0.01209   0.25036
deviatoric strain in crystal reference u1 u2 u3 (*10^3)
   0.53118  -2.25400  -1.66422
  -2.25400   3.30092   0.45289
  -1.66422   0.45289  -3.81922
deviatoric strain in sample reference X Y Z (*10^3)
  -0.23557  -0.91794   0.53027
  -0.91794   4.56777   0.15970
   0.53027   0.15970  -4.31931
deviatoric principal strains (*10^3):   4.73763  -0.32909  -4.39565
deviatoric strain principal axes in sample reference:
  -0.18081   0.98349   0.00676
   0.97446   0.17821   0.13663
  -0.13317  -0.03129   0.99060
deviatoric stress in crystal reference u1 u2 u3 (MPa)
       54.84557     -358.43045     -264.64352
     -358.43045      336.52808       72.01796
     -264.64352       72.01796     -387.59048
deviatoric stress in sample reference X Y Z (MPa)
      -36.41821     -204.91562      -22.81786
     -204.91562      561.34521       20.34885
      -22.81786       20.34885     -521.14380
deviatoric principal stresses (MPa):      625.44391      -99.33004     -522.33069
deviatoric stress principal axes in sample reference:
       -0.29640        0.95479        0.02284
       -0.95412       -0.29708        0.03728
        0.04238       -0.01075        0.99904
total strain in sample reference X Y Z (*10^3)
   1.53993  -0.91794   0.53027
  -0.91794   6.34327   0.15970
   0.53027   0.15970  -2.54382
total principal strains (*10^3):   6.51313   1.44640  -2.62015
total strain principal axes in sample reference:
  -0.18081   0.98349   0.00676
   0.97446   0.17821   0.13663
  -0.13317  -0.03129   0.99060
total stress in crystal reference u1 u2 u3 (MPa)
      575.98938     -358.43045     -264.64352
     -358.43045      857.67188       72.01796
     -264.64352       72.01796      133.55334
total stress in sample reference X Y Z (MPa)
      484.72562     -204.91562      -22.81786
     -204.91562     1082.48901       20.34885
      -22.81786       20.34885        0.00000
total principal stresses (MPa):     1146.58765      421.81378       -1.18686
total stress principal axes in sample reference:
       -0.29640        0.95479        0.02284
       -0.95412       -0.29708        0.03728
        0.04238       -0.01075        0.99904
dilatational strain (*10^-3):        1.77550
hydrostatic stress (MPa):      522.40491
Von Mises stress (MPa):     1005.38885
equivalent strain (*10^-3):        5.28363
equivalent stress (MPa):     1005.38885
maximum resolved shear stress:       22.52595
coordinates of a, b, c in X, Y, Z
   0.44451  -0.20241   0.23858
   0.19246   0.50582   0.06496
  -0.24576   0.03226   0.48112
coordinates of a*, b*, c* in X, Y, Z
   1.50615  -0.67773   0.81478
   0.65597   1.70110   0.22101
  -0.83545   0.10639   1.64680
