\\vmware-host\Shared Folders\Desktop\SiHyperlaueFinal_shielded_results\results_00079.STR
Number of grains:       1
Grain no:       1   Grainlist file index:       1    Number of peaks:      33
no   x(exp)  y(exp)  h  k  l xdev  ydev  angdev  energy  dspace  twotheta  intens   integr  xwidth   ywidth  tilt  rfactor   pearson  xcentroid  ycentroid
     2      392.63223      871.96661    -2     4    -2  -0.31568  -0.11200   0.01833  12.44821   0.11104  53.29247       42927.00      147035.44     1.75599     2.05773   178.59621     0.20789     0.00000   746.65076   746.65076
     5      746.33942      951.24811    -3     3    -1  -0.35362   0.53886   0.02264  11.59380   0.12489  50.69743       41561.00      106976.44     1.60196     1.91936   102.64956     0.18377     0.00000  1026.76892  1026.76892
    13      991.67914      299.61722    -4     2    -2   0.12850  -0.06462   0.00526   8.25862   0.11084  85.25904       38851.00       67454.44     1.22336     1.57420   179.32864     0.22100     0.00000   282.87949   282.87949
     3      546.05194      225.14267    -3     3    -3   0.10625   0.18965   0.00795   8.45290   0.10446  89.19039       30342.00       46853.44     1.24094     1.24204   131.27367     0.18607     0.00000   992.02032   992.02032
     7     1026.44629      909.49310    -5     3    -1  -0.27492   0.27299   0.01391  14.49343   0.09196  55.43397         436.00        1444.44     1.18586     1.57340   177.74731     0.07087     0.00000    62.01136    62.01136
     6      925.01117      683.02966    -6     4    -2   0.08353   0.01907   0.00388  16.08298   0.07268  64.06203       40944.00      108078.44     1.60807     1.97797    30.03437     0.23746     0.00000   925.35162   925.35162
    36       61.86688      407.69257    -1     3    -3   0.20187   0.29459   0.01174   7.86007   0.12446  78.64907           0.00           0.00     0.00000     0.00000     0.00000     0.00000     0.00000     0.00000     0.00000
     4      426.63400      666.11237    -3     5    -3   0.45568  -0.12702   0.02514  14.36019   0.08292  62.75144       57607.00      194697.44     1.81151     1.87379    14.46210     0.22908     0.00000   546.38281   546.38281
    14      648.66681      500.22229    -6     6    -4   0.16930   0.02260   0.00883  18.19170   0.05795  72.04442       13369.00       23481.44     1.20875     1.46626     3.96371     0.18376     0.00000   258.92279   258.92279
     8      668.66693      570.49664    -5     5    -3   0.11174  -0.03018   0.00600  15.64207   0.07079  68.09202       38681.00      185753.44     1.90548     2.84554   175.35335     0.30675     0.00000   426.85056   426.85056
    11      868.11279      257.27795    -5     3    -3   0.07993   0.21904   0.00746  10.82863   0.08280  87.48706       20708.00       59661.44     1.79802     1.87407    58.28761     0.21638     0.00000   868.37402   868.37402
    10      331.59390      270.36130    -4     6    -6  -0.49577  -0.03637   0.02243  15.68279   0.05785  86.21135       53721.00       80640.44     1.08489     1.54218     0.04868     0.19354     0.00000   668.99536   668.99536
     9      282.61215      288.46219    -3     5    -5  -0.41769  -0.02671   0.01855  12.97689   0.07064  85.10118       22257.00       46456.44     1.08997     1.86779     0.00709     0.19262     0.00000   648.99933   648.99933
    19      258.61832      619.58594    -3     7    -5  -0.04381  -0.38389   0.01043  19.09168   0.05963  65.98098       19778.00       38566.44     1.23400     1.68315     6.78164     0.23063     0.00000   129.72147   129.72147
    17      858.89423      567.51459    -7     5    -3   0.15437  -0.27598   0.01074  18.24945   0.05968  69.39196        8330.00       20606.44     1.08670     1.94560     0.05371     0.30353     0.00000   464.00269   464.00269
    31      475.03580      454.86832    -6     8    -6   0.00968   0.02472   0.00091  21.96904   0.04659  74.55615         494.00        2362.44     1.27240     2.01891     0.49974     0.10562     0.00000   699.03204   699.03204
    20      463.66931      498.15570    -5     7    -5   0.36198  -0.12342   0.01926  19.31559   0.05461  71.98207       13654.00       27772.44     1.17458     1.72220   177.64102     0.22161     0.00000   439.08026   439.08026
    22      721.84973      228.63573    -8     6    -6   0.06528   0.02348   0.00301  18.98038   0.04655  89.11530       23082.00       34084.44     1.16168     1.27484   179.33032     0.19458     0.00000   753.88721   753.88721
    15      129.38429       39.62222    -3     5    -7  -0.21826   0.22408   0.01017  13.62037   0.05948  99.85712       13930.00       31593.44     1.48821     1.64423    65.81962     0.22336     0.00000   859.20715   859.20715
    18      438.70114       20.96393    -6     6    -8   0.42806   0.30170   0.01955  17.13968   0.04649 102.16085        9178.00       18374.44     1.23570     1.52338   177.29245     0.21409     0.00000   722.14856   722.14856
    30     1012.70203      601.56622    -9     5    -3   0.03184  -0.15710   0.00427  21.60212   0.05069  68.95999        5241.00        9451.44     1.12189     1.36537   177.56435     0.15820     0.00000   262.01620   262.01620
    16      753.59180      232.69177    -7     5    -5  -0.31596   0.19574   0.01521  16.22807   0.05456  88.87513         894.00        3173.44     1.53824     1.81836     0.00000     0.10861     0.00000   475.06805   475.06805
    21      145.61040      355.20010    -3     7    -7  -0.03905  -0.03670   0.00198  18.13831   0.05245  81.32960        1262.00        3332.44     1.31807     1.51203   169.91599     0.10752     0.00000  1012.99213  1012.99213
    23      364.75626      259.68503    -5     7    -7  -0.04148  -0.08428   0.00331  18.42431   0.04893  86.88879        7291.00       18986.44     1.24733     1.89863   179.16574     0.17725     0.00000   145.91447   145.91447
    29      784.13794       52.52392   -10     6    -8  -0.03567  -0.08540   0.00300  21.07607   0.03835 100.15234        3911.00       11404.44     1.46370     1.86321    47.27129     0.21485     0.00000   823.11798   823.11798
    33      300.67386       92.98343    -6     8   -10  -0.06108   0.02119   0.00255  21.53369   0.03834  97.34202         620.00        2556.44     1.31110     1.75569    12.46138     0.12121     0.00000   971.98474   971.98474
    25      919.91565      273.29010    -9     5    -5   0.13453  -0.08611   0.00599  19.04889   0.04744  86.63230         913.00        3861.44     1.69826     1.77853    86.17054     0.13472     0.00000   784.07007   784.07007
    26       27.57727      162.43924    -3     7    -9   0.32015   0.02939   0.01079  18.66386   0.04597  92.52870         844.00        2449.44     1.11488     1.79178   177.08842     0.09707     0.00000   301.02798   301.02798
    24      822.87012       31.37209    -9     5    -7   0.19125  -0.14726   0.00822  18.39841   0.04356 101.33090        9870.00       16676.44     1.20450     1.30967     0.83701     0.18655     0.00000   365.09244   365.09244
    27      261.68073       78.66257    -5     7    -9  -0.07315  -0.05385   0.00324  18.84946   0.04354  98.10717        3601.00       11298.44     1.63443     1.85082    17.74439     0.18865     0.00000   920.16266   920.16266
    34      698.74213      226.34991    -9     7    -7   0.05984  -0.11296   0.00451  21.74959   0.04058  89.25063         522.00        2764.24     1.23885     2.33164     5.66252     0.52932     0.00000   615.84363   615.84363
    28      454.66354       47.75855    -7     7    -9   0.00681   0.01998   0.00068  19.88958   0.04053 100.54080        4033.00       10047.44     1.38035     1.71850   170.65118     0.17384     0.00000    27.92098    27.92098
    32      971.57343       85.56935   -11     5    -7  -0.35164  -0.32187   0.01572  21.19106   0.03885  97.70890        2692.00        5847.44     1.08288     1.52437   178.84146     0.15358     0.00000   454.99063   454.99063
latticeparameters=   0.54325   0.54483   0.54093  89.94878  90.19192  90.25697
dpsx, dpsy: 179.00000 168.38699
dd, xcent, ycent:      150.57201      540.60303      212.87601
pitch,yaw,roll:  -0.22645   0.61642   0.00000
dev1, dev2, pixdev:   0.01224   0.01206   0.25371
deviatoric strain in crystal reference u1 u2 u3 (*10^3)
   0.46722  -2.25007  -1.66845
  -2.25007   3.35804   0.43784
  -1.66845   0.43784  -3.81224
deviatoric strain in sample reference X Y Z (*10^3)
  -0.25951  -0.87185   0.50173
  -0.87185   4.60394   0.16715
   0.50173   0.16715  -4.33142
deviatoric principal strains (*10^3):   4.75620  -0.34254  -4.40064
deviatoric strain principal axes in sample reference:
  -0.17040   0.98534   0.00872
   0.97721   0.16785   0.12995
  -0.12658  -0.03066   0.99148
deviatoric stress in crystal reference u1 u2 u3 (MPa)
       48.34861     -357.80612     -265.31766
     -357.80612      342.34515       69.62474
     -265.31766       69.62474     -386.87216
deviatoric stress in sample reference X Y Z (MPa)
      -38.27522     -199.78738      -26.01997
     -199.78738      564.81323       20.55328
      -26.01997       20.55328     -522.71643
deviatoric principal stresses (MPa):      625.63641      -97.60858     -524.20618
deviatoric stress principal axes in sample reference:
       -0.28893        0.95706        0.02368
       -0.95607       -0.28973        0.04451
        0.04946       -0.00978        0.99873
total strain in sample reference X Y Z (*10^3)
   1.52135  -0.87185   0.50173
  -0.87185   6.38480   0.16715
   0.50173   0.16715  -2.55056
total principal strains (*10^3):   6.53705   1.43832  -2.61979
total strain principal axes in sample reference:
  -0.17040   0.98534   0.00872
   0.97721   0.16785   0.12995
  -0.12658  -0.03066   0.99148
total stress in crystal reference u1 u2 u3 (MPa)
      571.06506     -357.80612     -265.31766
     -357.80612      865.06158       69.62474
     -265.31766       69.62474      135.84427
total stress in sample reference X Y Z (MPa)
      484.44122     -199.78738      -26.01997
     -199.78738     1087.52966       20.55328
      -26.01997       20.55328        0.00000
total principal stresses (MPa):     1148.35278      425.10785       -1.48974
total stress principal axes in sample reference:
       -0.28893        0.95706        0.02368
       -0.95607       -0.28973        0.04451
        0.04946       -0.00978        0.99873
dilatational strain (*10^-3):        1.78085
hydrostatic stress (MPa):      523.99030
Von Mises stress (MPa):     1006.77869
equivalent strain (*10^-3):        5.29807
equivalent stress (MPa):     1006.77869
maximum resolved shear stress:       16.81449
coordinates of a, b, c in X, Y, Z
   0.44444  -0.20242   0.23854
   0.19251   0.50580   0.06496
  -0.24574   0.03226   0.48109
coordinates of a*, b*, c* in X, Y, Z
   1.50610  -0.67787   0.81477
   0.65601   1.70084   0.22103
  -0.83536   0.10644   1.64670
