\\vmware-host\Shared Folders\Desktop\SiHyperlaueFinal_shielded_results\results_00074.STR
Number of grains:       1
Grain no:       1   Grainlist file index:       1    Number of peaks:      33
no   x(exp)  y(exp)  h  k  l xdev  ydev  angdev  energy  dspace  twotheta  intens   integr  xwidth   ywidth  tilt  rfactor   pearson  xcentroid  ycentroid
     1      392.63129      871.97388    -2     4    -2  -0.32526  -0.11237   0.01888  12.44741   0.11105  53.29223      118022.00      234497.30     1.17248     1.88223     2.21250     0.18574     0.00000   392.89597   392.89597
     5      746.33368      951.24908    -3     3    -1  -0.35082   0.53694   0.02249  11.59327   0.12490  50.69744       41514.00      107705.30     1.64929     1.89399    97.60239     0.19045     0.00000  1026.76355  1026.76355
    13      991.68005      299.61746    -4     2    -2   0.11358  -0.05694   0.00465   8.25854   0.11084  85.25854       39780.00       68863.30     1.22282     1.56555   179.23737     0.22224     0.00000   282.88132   282.88132
     3      546.05103      225.14137    -3     3    -3   0.10655   0.19081   0.00799   8.45259   0.10446  89.19040       30575.00       47637.30     1.24296     1.24442    35.78009     0.18957     0.00000   992.02246   992.02246
     7     1026.44043      909.49402    -5     3    -1  -0.27996   0.26188   0.01401  14.49302   0.09197  55.43422         473.00        1448.30     1.17674     1.44178   177.62430     0.06959     0.00000    62.01502    62.01502
     6      924.98877      683.01508    -6     4    -2   0.09858   0.03057   0.00459  16.08254   0.07268  64.06211       41155.00      109541.30     1.67805     1.86013    69.54112     0.25196     0.00000   925.35156   925.35156
    36       61.80187      407.68265    -1     3    -3   0.24628   0.30166   0.01319   7.85956   0.12447  78.64932           0.00           0.00     0.00000     0.00000     0.00000     0.00000     0.00000     0.00000     0.00000
     4      426.63019      666.11499    -3     5    -3   0.45206  -0.13048   0.02495  14.35931   0.08292  62.75150       58075.00      196008.30     1.81244     1.87433    12.13636     0.22860     0.00000   546.38098   546.38098
    14      648.66711      500.22354    -6     6    -4   0.16679   0.01972   0.00870  18.19093   0.05795  72.04451       13726.00       24008.30     1.21162     1.47205     3.95989     0.18083     0.00000   258.91858   258.91858
     8      668.66693      570.49762    -5     5    -3   0.10932  -0.03294   0.00588  15.64140   0.07079  68.09211       39617.00      188353.30     1.90501     2.82723   175.27007     0.30686     0.00000   426.84796   426.84796
    11      868.08942      257.31537    -5     3    -3   0.09607   0.18897   0.00700  10.82848   0.08280  87.48660       21071.00       60080.30     1.78394     1.83774    91.60272     0.22361     0.00000   868.38019   868.38019
    10      331.59186      270.35617    -4     6    -6  -0.49880  -0.03616   0.02256  15.68196   0.05785  86.21167       54313.00       81302.30     1.08447     1.54005     0.11054     0.19339     0.00000   669.00653   669.00653
     9      282.61227      288.46695    -3     5    -5  -0.42487  -0.03691   0.01889  12.97617   0.07065  85.10153       22527.00       47021.30     1.08994     1.86667   179.97092     0.19380     0.00000   649.00055   649.00055
    19      258.61768      619.58728    -3     7    -5  -0.05742  -0.38467   0.01067  19.09040   0.05964  65.98104       19714.00       38856.30     1.24249     1.69177     7.03950     0.23063     0.00000   129.71284   129.71284
    17      858.87622      567.51074    -7     5    -3   0.16694  -0.27284   0.01112  18.24895   0.05968  69.39196        8347.00       20572.30     1.08713     1.94495   179.95120     0.30177     0.00000   464.01077   464.01077
    31      474.99875      454.84247    -6     8    -6   0.04274   0.04713   0.00266  21.96787   0.04659  74.55636         531.00        2159.30     1.24455     1.89090     7.00788     0.10022     0.00000   699.03516   699.03516
    20      463.66968      498.15686    -5     7    -5   0.35692  -0.12792   0.01902  19.31452   0.05462  71.98227       13686.00       27834.30     1.17079     1.72269   177.85489     0.22139     0.00000   439.07446   439.07446
    22      721.84686      228.63812    -8     6    -6   0.06590   0.02568   0.00306  18.97992   0.04655  89.11500       23419.00       34383.30     1.16202     1.27326   178.95482     0.19248     0.00000   753.87653   753.87653
    15      129.37869       39.61952    -3     5    -7  -0.21773   0.22041   0.01009  13.61971   0.05948  99.85746       14079.00       31513.30     1.48739     1.63024    20.39132     0.22318     0.00000   859.20361   859.20361
    18      438.69989       20.96384    -6     6    -8   0.43126   0.30372   0.01969  17.13911   0.04649 102.16073        9587.00       18776.30     1.23123     1.51769   178.23692     0.20791     0.00000   722.15259   722.15259
    30     1012.69806      601.57031    -9     5    -3   0.02345  -0.16344   0.00430  21.60172   0.05069  68.95998        5283.00        9388.30     1.11979     1.35349   178.88687     0.15480     0.00000   262.00797   262.00797
    16      753.59283      232.69208    -7     5    -5  -0.32003   0.20075   0.01543  16.22772   0.05456  88.87479         953.00        3306.30     1.52254     1.75544   178.78960     0.11306     0.00000   475.08221   475.08221
    21      145.61012      355.20215    -3     7    -7  -0.05336  -0.04371   0.00260  18.13718   0.05245  81.32993        1250.00        3349.30     1.31004     1.59786   173.83835     0.10295     0.00000  1012.99976  1012.99976
    23      364.75995      259.68396    -5     7    -7  -0.04907  -0.08762   0.00361  18.42339   0.04893  86.88907        7315.00       18960.30     1.25187     1.89290   179.17397     0.17774     0.00000   145.91705   145.91705
    29      784.13763       52.56407   -10     6    -8  -0.03966  -0.11229   0.00382  21.07581   0.03836 100.15154        4043.00       11591.30     1.53314     1.78283    80.80094     0.21046     0.00000   823.14557   823.14557
    32      300.68405       92.97220    -6     8   -10  -0.07301   0.02869   0.00308  21.53273   0.03834  97.34225        2758.00        5887.30     1.07826     1.48680     1.55965     0.15546     0.00000   454.98651   454.98651
    24      919.93829      273.29031    -9     5    -5   0.10209  -0.07850   0.00473  19.04866   0.04744  86.63181        9829.00       16597.30     1.20579     1.32094     1.01779     0.18248     0.00000   365.10556   365.10556
    26       27.57090      162.43040    -3     7    -9   0.31246   0.03061   0.01053  18.66281   0.04597  92.52911         828.00        2509.30     1.13957     1.77851   176.87941     0.10104     0.00000   301.01663   301.01663
    25      822.86548       31.39432    -9     5    -7   0.18969  -0.15375   0.00826  18.39825   0.04356 101.32998         902.00        3946.30     1.56331     1.84079   163.97435     0.13948     0.00000   784.09546   784.09546
    27      261.68069       78.65985    -5     7    -9  -0.07542  -0.05547   0.00334  18.84859   0.04354  98.10743        3634.00       11732.30     1.66919     1.85211    21.16437     0.19089     0.00000   920.16858   920.16858
    35      698.72943      226.35889    -9     7    -7   0.07077  -0.11792   0.00493  21.74903   0.04058  89.25037           0.00           0.00     0.00000     0.00000     0.00000     0.00000     0.00000     0.00000     0.00000
    28      454.66577       47.74890    -7     7    -9   0.00610   0.03124   0.00101  19.88891   0.04053 100.54071        4090.00       10273.30     1.40235     1.71872   168.79451     0.17401     0.00000    27.91017    27.91017
    33      971.53662       85.54881   -11     5    -7  -0.32994  -0.28355   0.01442  21.19101   0.03885  97.70792         625.00        2413.30     1.41498     1.68186     8.83157     0.10730     0.00000   971.96625   971.96625
latticeparameters=   0.54323   0.54486   0.54093  89.94962  90.19419  90.25749
dpsx, dpsy: 179.00000 168.38699
dd, xcent, ycent:      150.57201      540.60303      212.87601
pitch,yaw,roll:  -0.22645   0.61642   0.00000
dev1, dev2, pixdev:   0.01230   0.01211   0.25614
deviatoric strain in crystal reference u1 u2 u3 (*10^3)
   0.42473  -2.25473  -1.68818
  -2.25473   3.40852   0.43035
  -1.68818   0.43035  -3.82005
deviatoric strain in sample reference X Y Z (*10^3)
  -0.26888  -0.84600   0.47813
  -0.84600   4.64465   0.17783
   0.47813   0.17783  -4.36258
deviatoric principal strains (*10^3):   4.78726  -0.34799  -4.42607
deviatoric strain principal axes in sample reference:
  -0.16404   0.98640   0.01060
   0.97908   0.16150   0.12376
  -0.12036  -0.03068   0.99226
deviatoric stress in crystal reference u1 u2 u3 (MPa)
       44.03893     -358.54639     -268.45499
     -358.54639      347.49051       68.43448
     -268.45499       68.43448     -387.65466
deviatoric stress in sample reference X Y Z (MPa)
      -38.40955     -197.39095      -29.20501
     -197.39095      569.16095       21.54431
      -29.20501       21.54431     -526.87659
deviatoric principal stresses (MPa):      628.38434      -95.79932     -528.71027
deviatoric stress principal axes in sample reference:
       -0.28477        0.95827        0.02507
       -0.95698       -0.28571        0.05056
        0.05561       -0.00959        0.99841
total strain in sample reference X Y Z (*10^3)
   1.52615  -0.84600   0.47813
  -0.84600   6.43968   0.17783
   0.47813   0.17783  -2.56755
total principal strains (*10^3):   6.58229   1.44704  -2.63104
total strain principal axes in sample reference:
  -0.16404   0.98640   0.01060
   0.97908   0.16150   0.12376
  -0.12036  -0.03068   0.99226
total stress in crystal reference u1 u2 u3 (MPa)
      570.91553     -358.54639     -268.45499
     -358.54639      874.36713       68.43448
     -268.45499       68.43448      139.22194
total stress in sample reference X Y Z (MPa)
      488.46707     -197.39095      -29.20501
     -197.39095     1096.03760       21.54431
      -29.20501       21.54431        0.00000
total principal stresses (MPa):     1155.26099      431.07727       -1.83365
total stress principal axes in sample reference:
       -0.28477        0.95827        0.02507
       -0.95698       -0.28571        0.05056
        0.05561       -0.00959        0.99841
dilatational strain (*10^-3):        1.79503
hydrostatic stress (MPa):      528.16821
Von Mises stress (MPa):     1012.60107
equivalent strain (*10^-3):        5.33098
equivalent stress (MPa):     1012.60107
maximum resolved shear stress:       13.75958
coordinates of a, b, c in X, Y, Z
   0.44439  -0.20243   0.23851
   0.19253   0.50580   0.06498
  -0.24574   0.03225   0.48106
coordinates of a*, b*, c* in X, Y, Z
   1.50605  -0.67794   0.81479
   0.65601   1.70065   0.22110
  -0.83531   0.10641   1.64665
