\\vmware-host\Shared Folders\Desktop\SiHyperlaueFinal_shielded_results\results_00026.STR
Number of grains:       1
Grain no:       1   Grainlist file index:       1    Number of peaks:      33
no   x(exp)  y(exp)  h  k  l xdev  ydev  angdev  energy  dspace  twotheta  intens   integr  xwidth   ywidth  tilt  rfactor   pearson  xcentroid  ycentroid
     2      392.62112      871.98511    -2     4    -2  -0.32837  -0.10770   0.01903  12.44795   0.11105  53.29163       58547.00      202171.59     1.80409     2.06054   178.00723     0.21484     0.00000   746.61359   746.61359
     5      746.29462      951.30151    -3     3    -1  -0.33164   0.52577   0.02143  11.59388   0.12490  50.69571       49230.00      127805.59     1.67044     1.85192   105.67683     0.19726     0.00000  1026.73755  1026.73755
    13      991.66626      299.62775    -4     2    -2   0.11413  -0.03624   0.00448   8.25876   0.11084  85.25672       49302.00       85354.59     1.23272     1.56251   179.30397     0.22684     0.00000   282.87289   282.87289
     3      546.02008      225.15517    -3     3    -3   0.12939   0.19364   0.00876   8.45285   0.10446  89.18930       39318.00       58910.59     1.21674     1.23904   176.67250     0.17983     0.00000   991.99786   991.99786
     6     1026.41980      909.54175    -5     3    -1  -0.28144   0.26672   0.01412  14.49373   0.09197  55.43189       45378.00      122389.59     1.60818     1.95756   106.07881     0.24812     0.00000   925.33398   925.33398
     7      924.97491      683.06958    -6     4    -2   0.09345   0.01429   0.00434  16.08319   0.07268  64.06007        1055.00        2316.59     1.14050     1.42862   179.91574     0.07908     0.00000    62.01314    62.01314
    35       61.80116      407.68613    -1     3    -3   0.24594   0.29512   0.01305   7.85981   0.12446  78.64949           0.00           0.00     0.00000     0.00000     0.00000     0.00000     0.00000     0.00000     0.00000
     4      426.61038      666.13007    -3     5    -3   0.45966  -0.12924   0.02536  14.35991   0.08292  62.75069       80666.00      264351.59     1.78203     1.87430     1.12468     0.23171     0.00000   546.36804   546.36804
    14      648.66736      500.25983    -6     6    -4   0.15261   0.00680   0.00795  18.19162   0.05795  72.04309       14567.00       25861.59     1.23019     1.45870     5.15723     0.19124     0.00000   258.90808   258.90808
     8      668.66687      570.51904    -5     5    -3   0.09428  -0.02889   0.00508  15.64202   0.07079  68.09063       49093.00      220488.59     1.89631     2.72341   175.26273     0.30599     0.00000   426.81812   426.81812
     9      868.07330      257.33878    -5     3    -3   0.10025   0.19200   0.00717  10.82876   0.08280  87.48497       25767.00       51431.59     1.08963     1.84681   179.96146     0.19518     0.00000   649.00153   649.00153
    11      331.58490      270.35889    -4     6    -6  -0.49701  -0.02924   0.02247  15.68249   0.05785  86.21106       33354.00       88280.59     1.64199     1.93630   126.98619     0.22125     0.00000   868.37701   868.37701
    10      282.60834      288.46786    -3     5    -5  -0.42540  -0.03006   0.01889  12.97660   0.07064  85.10105       63896.00       94022.59     1.08399     1.50193     0.05628     0.19461     0.00000   669.00311   669.00311
    19      258.61029      619.59351    -3     7    -5  -0.05821  -0.38426   0.01067  19.09113   0.05964  65.98074       23934.00       47197.59     1.24579     1.69101     7.45405     0.24042     0.00000   129.69868   129.69868
    17      858.85840      567.54535    -7     5    -3   0.16774  -0.27529   0.01119  18.24962   0.05968  69.39010        8817.00       22125.59     1.08476     1.94742   179.95857     0.29930     0.00000   464.00900   464.00900
    31      474.98883      454.85516    -6     8    -6   0.04203   0.05079   0.00269  21.96870   0.04659  74.55538         556.00        2236.59     1.24288     1.98575     1.53258     0.09912     0.00000   699.02509   699.02509
    20      463.66861      498.18338    -5     7    -5   0.34698  -0.13810   0.01857  19.31527   0.05462  71.98132       15356.00       31002.59     1.17071     1.73572   177.64326     0.22040     0.00000   439.08112   439.08112
    22      721.83411      228.64801    -8     6    -6   0.06837   0.03759   0.00329  18.98046   0.04655  89.11360       26084.00       39228.59     1.17606     1.29157   178.86185     0.20497     0.00000   753.85413   753.85413
    15      129.37900       39.61831    -3     5    -7  -0.21486   0.22327   0.01007  13.62009   0.05948  99.85738       16361.00       34815.59     1.44697     1.57222    75.76444     0.22846     0.00000   859.19940   859.19940
    18      438.70056       20.97415    -6     6    -8   0.42823   0.30568   0.01961  17.13957   0.04649 102.15997       10546.00       20147.59     1.20917     1.48702   179.12505     0.21375     0.00000   722.14801   722.14801
    30     1012.68878      601.59546    -9     5    -3   0.01436  -0.14986   0.00385  21.60250   0.05069  68.95787        5838.00       10132.59     1.11608     1.34797   176.95375     0.15739     0.00000   262.01413   262.01413
    16      753.58490      232.70003    -7     5    -5  -0.32275   0.21554   0.01574  16.22817   0.05456  88.87333        1007.00        3277.59     1.54668     1.75539   170.86211     0.10866     0.00000   475.03436   475.03436
    21      145.60773      355.19205    -3     7    -7  -0.05335  -0.03203   0.00243  18.13778   0.05245  81.32985        1313.00        3568.59     1.35029     1.55577   170.14381     0.10909     0.00000  1013.01190  1013.01190
    23      364.75330      259.68875    -5     7    -7  -0.04807  -0.08156   0.00343  18.42400   0.04893  86.88838        7889.00       20505.59     1.25177     1.89464   179.16644     0.18172     0.00000   145.90590   145.90590
    29      784.14392       52.56067   -10     6    -8  -0.05293  -0.08677   0.00342  21.07628   0.03835 100.15021        4571.00       12643.59     1.49985     1.70919    83.56553     0.22815     0.00000   823.13422   823.13422
    33      300.68216       93.02791    -6     8   -10  -0.07251  -0.01898   0.00295  21.53336   0.03834  97.34174         732.00        2829.59     1.38701     1.47071     0.00000     0.12711     0.00000   971.96899   971.96899
    25      919.89899      273.33725    -9     5    -5   0.12890  -0.09717   0.00594  19.04916   0.04744  86.63009         946.00        4157.59     1.57339     1.84244   162.89917     0.14704     0.00000   784.10071   784.10071
    26       27.57142      162.42336    -3     7    -9   0.31530   0.03465   0.01063  18.66336   0.04597  92.52928         877.00        2711.59     1.13951     1.85213   176.89478     0.10529     0.00000   301.00757   301.00757
    24      822.84454       31.43379    -9     5    -7   0.20393  -0.17012   0.00896  18.39864   0.04356 101.32862       10834.00       17757.59     1.20098     1.30417     2.86619     0.18136     0.00000   365.09671   365.09671
    27      261.67963       78.66211    -5     7    -9  -0.07471  -0.05110   0.00325  18.84915   0.04354  98.10702        4266.00       12636.59     1.60424     1.79628    20.32480     0.20238     0.00000   920.14435   920.14435
    36      698.72400      226.37051    -9     7    -7   0.06619  -0.10844   0.00457  21.74965   0.04058  89.24900           0.00           0.00     0.00000     0.00000     0.00000     0.00000     0.00000     0.00000     0.00000
    28      454.66669       47.76352    -7     7    -9   0.00200   0.02946   0.00093  19.88945   0.04053 100.53989        4391.00       10789.59     1.39142     1.72164   168.96469     0.17800     0.00000    27.90226    27.90226
    32      971.54803       85.60693   -11     5    -7  -0.34987  -0.31377   0.01553  21.19144   0.03885  97.70634        2975.00        6277.59     1.08000     1.49963     1.07023     0.15689     0.00000   455.00046   455.00046
latticeparameters=   0.54324   0.54485   0.54093  89.94906  90.19359  90.25760
dpsx, dpsy: 179.00000 168.38699
dd, xcent, ycent:      150.57201      540.60303      212.87601
pitch,yaw,roll:  -0.22645   0.61642   0.00000
dev1, dev2, pixdev:   0.01233   0.01211   0.25618
deviatoric strain in crystal reference u1 u2 u3 (*10^3)
   0.44684  -2.25559  -1.68290
  -2.25559   3.38780   0.43528
  -1.68290   0.43528  -3.82149
deviatoric strain in sample reference X Y Z (*10^3)
  -0.26302  -0.86086   0.48953
  -0.86086   4.63086   0.17401
   0.48953   0.17401  -4.35469
deviatoric principal strains (*10^3):   4.77874  -0.34473  -4.42087
deviatoric strain principal axes in sample reference:
  -0.16738   0.98584   0.00981
   0.97817   0.16481   0.12657
  -0.12316  -0.03078   0.99191
deviatoric stress in crystal reference u1 u2 u3 (MPa)
       46.28459     -358.68457     -267.61493
     -358.68457      345.37949       69.21895
     -267.61493       69.21895     -387.80542
deviatoric stress in sample reference X Y Z (MPa)
      -38.16756     -198.97884      -27.82498
     -198.97884      567.80835       21.28367
      -27.82498       21.28367     -525.78217
deviatoric principal stresses (MPa):      628.00146      -96.68036     -527.46246
deviatoric stress principal axes in sample reference:
       -0.28705        0.95760        0.02459
       -0.95646       -0.28794        0.04774
        0.05280       -0.00981        0.99856
total strain in sample reference X Y Z (*10^3)
   1.52828  -0.86086   0.48953
  -0.86086   6.42215   0.17401
   0.48953   0.17401  -2.56339
total principal strains (*10^3):   6.57004   1.44657  -2.62957
total strain principal axes in sample reference:
  -0.16738   0.98584   0.00981
   0.97817   0.16481   0.12657
  -0.12316  -0.03078   0.99191
total stress in crystal reference u1 u2 u3 (MPa)
      572.06671     -358.68457     -267.61493
     -358.68457      871.16162       69.21895
     -267.61493       69.21895      137.97672
total stress in sample reference X Y Z (MPa)
      487.61459     -198.97884      -27.82498
     -198.97884     1093.59045       21.28367
      -27.82498       21.28367        0.00000
total principal stresses (MPa):     1153.78357      429.10178       -1.68029
total stress principal axes in sample reference:
       -0.28705        0.95760        0.02459
       -0.95646       -0.28794        0.04774
        0.05279       -0.00981        0.99856
dilatational strain (*10^-3):        1.79130
hydrostatic stress (MPa):      527.06836
Von Mises stress (MPa):     1011.39355
equivalent strain (*10^-3):        5.32286
equivalent stress (MPa):     1011.39355
maximum resolved shear stress:       15.51002
coordinates of a, b, c in X, Y, Z
   0.44442  -0.20244   0.23851
   0.19253   0.50580   0.06498
  -0.24573   0.03226   0.48108
coordinates of a*, b*, c* in X, Y, Z
   1.50607  -0.67796   0.81474
   0.65607   1.70071   0.22108
  -0.83529   0.10642   1.64671
