\\vmware-host\Shared Folders\Desktop\SiHyperlaueFinal_shielded_results\results_00085.STR
Number of grains:       1
Grain no:       1   Grainlist file index:       1    Number of peaks:      33
no   x(exp)  y(exp)  h  k  l xdev  ydev  angdev  energy  dspace  twotheta  intens   integr  xwidth   ywidth  tilt  rfactor   pearson  xcentroid  ycentroid
     2      392.63382      871.96594    -2     4    -2  -0.31942  -0.10808   0.01853  12.44737   0.11105  53.29235       42169.00      143260.02     1.74648     2.05764   178.56824     0.20991     0.00000   746.65204   746.65204
     5      746.34705      951.25116    -3     3    -1  -0.35306   0.52575   0.02249  11.59316   0.12490  50.69788       40699.00      104296.02     1.69510     1.81625   146.24934     0.20876     0.00000  1026.76819  1026.76819
    13      991.67792      299.61551    -4     2    -2   0.12640  -0.06219   0.00516   8.25849   0.11084  85.25899       39175.00       67716.02     1.22149     1.56807   179.42784     0.22108     0.00000   282.88544   282.88544
     3      546.05573      225.14107    -3     3    -3   0.10665   0.18957   0.00796   8.45257   0.10446  89.19050       29940.00       46555.02     1.24443     1.24729    94.00481     0.18676     0.00000   992.02252   992.02252
     7     1026.45203      909.48944    -5     3    -1  -0.27618   0.25788   0.01382  14.49287   0.09197  55.43476         451.00        1562.02     1.15572     1.44959   176.31898     0.07992     0.00000    62.02746    62.02746
     6      925.01489      683.02319    -6     4    -2   0.08485   0.01515   0.00394  16.08241   0.07268  64.06259       40355.00      106946.02     1.63147     1.95068    16.16304     0.24963     0.00000   925.35352   925.35352
    36       61.82180      407.69003    -1     3    -3   0.23294   0.30088   0.01277   7.85959   0.12447  78.64892           0.00           0.00     0.00000     0.00000     0.00000     0.00000     0.00000     0.00000     0.00000
     4      426.63760      666.11462    -3     5    -3   0.45216  -0.13249   0.02496  14.35927   0.08292  62.75160       56672.00      192115.02     1.81481     1.87333    15.29613     0.22885     0.00000   546.37982   546.37982
    14      648.66699      500.21594    -6     6    -4   0.17471   0.02301   0.00912  18.19084   0.05795  72.04478       13597.00       23719.02     1.20567     1.45542     3.87105     0.18353     0.00000   258.92529   258.92529
     8      668.66693      570.49744    -5     5    -3   0.11777  -0.03773   0.00635  15.64131   0.07079  68.09242       38152.00      183519.02     1.90517     2.86028   175.33521     0.30771     0.00000   426.85480   426.85480
    11      868.11737      257.27759    -5     3    -3   0.07644   0.22074   0.00744  10.82842   0.08280  87.48698       20312.00       59143.02     1.78580     1.88962   144.56158     0.21126     0.00000   868.37701   868.37701
    10      331.59357      270.34857    -4     6    -6  -0.49595  -0.02651   0.02242  15.68197   0.05785  86.21153       53683.00       80354.02     1.08517     1.53877     0.15446     0.19291     0.00000   669.00330   669.00330
     9      282.61270      288.46515    -3     5    -5  -0.42057  -0.03222   0.01869  12.97618   0.07065  85.10134       21563.00       45427.02     1.08944     1.87326     0.07755     0.19198     0.00000   649.00800   649.00800
    19      258.61948      619.59241    -3     7    -5  -0.05209  -0.38871   0.01068  19.09042   0.05964  65.98093       19487.00       37934.02     1.23158     1.68367     6.49489     0.22798     0.00000   129.71123   129.71123
    17      858.88690      567.50250    -7     5    -3   0.16693  -0.27112   0.01108  18.24881   0.05968  69.39239        8126.00       20063.02     1.09042     1.94549     0.06142     0.29823     0.00000   464.01804   464.01804
    31      475.04291      454.81949    -6     8    -6   0.00495   0.06850   0.00210  21.96782   0.04659  74.55646         525.00        2262.02     1.27819     2.00562     5.82191     0.10286     0.00000   699.04413   699.04413
    20      463.67035      498.16278    -5     7    -5   0.36287  -0.13556   0.01937  19.31448   0.05462  71.98237       13633.00       27664.02     1.17360     1.72500   177.70082     0.21841     0.00000   439.07486   439.07486
    22      721.85571      228.63689    -8     6    -6   0.06331   0.02273   0.00292  18.97984   0.04655  89.11527       22972.00       33717.02     1.16158     1.26827   179.25272     0.19240     0.00000   753.89117   753.89117
    15      129.38446       39.62321    -3     5    -7  -0.22077   0.22464   0.01025  13.61974   0.05948  99.85702       13577.00       31109.02     1.49386     1.65359   110.99204     0.22385     0.00000   859.19879   859.19879
    18      438.70023       20.96645    -6     6    -8   0.43307   0.30241   0.01974  17.13909   0.04649 102.16066        9053.00       18139.02     1.22726     1.53297   179.17456     0.21149     0.00000   722.15515   722.15515
    30     1012.70557      601.54840    -9     5    -3   0.02936  -0.14880   0.00403  21.60154   0.05069  68.96048        5287.00        9211.02     1.12149     1.35192   176.95091     0.14989     0.00000   262.03574   262.03574
    16      753.59430      232.69135    -7     5    -5  -0.31486   0.19688   0.01518  16.22765   0.05456  88.87508         927.00        3245.02     1.49249     1.82884   173.91608     0.11009     0.00000   475.04401   475.04401
    21      145.61559      355.20609    -3     7    -7  -0.05315  -0.04243   0.00257  18.13724   0.05245  81.32961        1233.00        3527.02     1.33260     1.63164   172.86298     0.11213     0.00000  1012.99365  1012.99365
    23      364.75732      259.68387    -5     7    -7  -0.04196  -0.08605   0.00337  18.42339   0.04893  86.88898        7229.00       18620.02     1.24243     1.89603     0.00000     0.17465     0.00000   145.91640   145.91640
    29      784.13855       52.57494   -10     6    -8  -0.03551  -0.12807   0.00420  21.07572   0.03836 100.15183        3927.00       11314.02     1.46499     1.85439    75.71741     0.20702     0.00000   823.13788   823.13788
    32      300.68088       92.99226    -6     8   -10  -0.06704   0.01238   0.00272  21.53274   0.03834  97.34202        2689.00        5924.02     1.08368     1.53859   178.76114     0.15491     0.00000   454.99368   454.99368
    25      919.93127      273.27173    -9     5    -5   0.11836  -0.06647   0.00515  19.04855   0.04744  86.63222         856.00        3776.02     1.49210     1.81797   171.17419     0.14158     0.00000   784.08386   784.08386
    26       27.56542      162.42873    -3     7    -9   0.32265   0.04153   0.01090  18.66289   0.04597  92.52859         867.00        2767.02     1.11227     1.79064   179.13370     0.11217     0.00000   301.00327   301.00327
    24      822.87097       31.38627    -9     5    -7   0.18951  -0.15121   0.00822  18.39816   0.04356 101.33029        9833.00       16402.02     1.20052     1.31318     1.22017     0.17922     0.00000   365.08926   365.08926
    27      261.68082       78.65808    -5     7    -9  -0.07286  -0.04903   0.00316  18.84862   0.04354  98.10715        3485.00       11256.02     1.65805     1.86461    17.48033     0.18440     0.00000   920.14447   920.14447
    34      698.73608      226.36813    -9     7    -7   0.07013  -0.13102   0.00525  21.74894   0.04058  89.25062         522.00        2764.24     1.23885     2.33164     5.66252     0.52932     0.00000   615.84363   615.84363
    28      454.66638       47.77907    -7     7    -9   0.00800   0.00194   0.00034  19.88888   0.04053 100.54066        3851.00        9736.02     1.40368     1.73419   169.35429     0.16848     0.00000    27.89748    27.89748
    33      971.57074       85.53671   -11     5    -7  -0.35593  -0.27897   0.01510  21.19089   0.03885  97.70833         619.00        2429.02     1.39746     1.61610     0.00000     0.10896     0.00000   971.96661   971.96661
latticeparameters=   0.54323   0.54486   0.54093  89.94922  90.19383  90.25758
dpsx, dpsy: 179.00000 168.38699
dd, xcent, ycent:      150.57201      540.60303      212.87601
pitch,yaw,roll:  -0.22645   0.61642   0.00000
dev1, dev2, pixdev:   0.01233   0.01212   0.25642
deviatoric strain in crystal reference u1 u2 u3 (*10^3)
   0.42341  -2.25547  -1.68505
  -2.25547   3.40948   0.43389
  -1.68505   0.43389  -3.81968
deviatoric strain in sample reference X Y Z (*10^3)
  -0.27343  -0.84658   0.48000
  -0.84658   4.64602   0.17989
   0.48000   0.17989  -4.35938
deviatoric principal strains (*10^3):   4.78869  -0.35191  -4.42357
deviatoric strain principal axes in sample reference:
  -0.16394   0.98641   0.01080
   0.97901   0.16135   0.12450
  -0.12107  -0.03098   0.99216
deviatoric stress in crystal reference u1 u2 u3 (MPa)
       43.90504     -358.66422     -267.95728
     -358.66422      347.58783       68.99764
     -267.95728       68.99764     -387.61771
deviatoric stress in sample reference X Y Z (MPa)
      -39.09007     -197.51939      -28.87655
     -197.51939      569.33960       21.84988
      -28.87655       21.84988     -526.37439
deviatoric principal stresses (MPa):      628.57373      -96.51729     -528.18127
deviatoric stress principal axes in sample reference:
       -0.28460        0.95831        0.02525
       -0.95707       -0.28554        0.04978
        0.05491       -0.00999        0.99844
total strain in sample reference X Y Z (*10^3)
   1.51989  -0.84658   0.48000
  -0.84658   6.43934   0.17989
   0.48000   0.17989  -2.56607
total principal strains (*10^3):   6.58200   1.44141  -2.63026
total strain principal axes in sample reference:
  -0.16394   0.98641   0.01080
   0.97901   0.16135   0.12450
  -0.12107  -0.03098   0.99216
total stress in crystal reference u1 u2 u3 (MPa)
      570.27942     -358.66422     -267.95728
     -358.66422      873.96222       68.99764
     -267.95728       68.99764      138.75670
total stress in sample reference X Y Z (MPa)
      487.28433     -197.51939      -28.87655
     -197.51939     1095.71399       21.84988
      -28.87655       21.84988        0.00000
total principal stresses (MPa):     1154.94824      429.85709       -1.80689
total stress principal axes in sample reference:
       -0.28460        0.95831        0.02525
       -0.95707       -0.28554        0.04978
        0.05491       -0.00999        0.99844
dilatational strain (*10^-3):        1.79332
hydrostatic stress (MPa):      527.66614
Von Mises stress (MPa):     1012.46558
equivalent strain (*10^-3):        5.33062
equivalent stress (MPa):     1012.46558
maximum resolved shear stress:       13.69227
coordinates of a, b, c in X, Y, Z
   0.44439  -0.20242   0.23852
   0.19252   0.50580   0.06498
  -0.24575   0.03225   0.48106
coordinates of a*, b*, c* in X, Y, Z
   1.50605  -0.67792   0.81480
   0.65598   1.70065   0.22110
  -0.83533   0.10639   1.64664
