\\vmware-host\Shared Folders\Desktop\SiHyperlaueFinal_shielded_results\results_00136.STR
Number of grains:       1
Grain no:       1   Grainlist file index:       1    Number of peaks:      32
no   x(exp)  y(exp)  h  k  l xdev  ydev  angdev  energy  dspace  twotheta  intens   integr  xwidth   ywidth  tilt  rfactor   pearson  xcentroid  ycentroid
     4      392.64142      872.04779    -2     4    -2  -0.29576  -0.13657   0.01731  12.45041   0.11103  53.28998       34825.00      128932.52     1.83319     1.88471    10.87315     0.22304     0.00000   546.37939   546.37939
     6      746.38702      951.31653    -3     3    -1  -0.38637   0.49737   0.02394  11.59491   0.12489  50.69652       30435.00       81390.52     1.64772     1.92944   153.72900     0.23959     0.00000   925.34583   925.34583
    13      991.68829      299.60956    -4     2    -2   0.15098  -0.09839   0.00645   8.25868   0.11083  85.26152       11854.00       20556.51     1.18889     1.44001     3.26405     0.17948     0.00000   258.93073   258.93073
     3      546.08148      225.18837    -3     3    -3   0.07878   0.15992   0.00640   8.45366   0.10445  89.18935       22769.00       36358.51     1.24507     1.26366     5.92573     0.18969     0.00000   992.04016   992.04016
     7     1026.48840      909.54730    -5     3    -1  -0.27826   0.21939   0.01357  14.49383   0.09196  55.43447       27023.00      135122.52     1.90992     2.97360   176.15710     0.30995     0.00000   426.90591   426.90591
     5      925.02393      683.00415    -6     4    -2   0.09573   0.03761   0.00448  16.08357   0.07267  64.06262       27810.00       70194.52     1.59691     1.87827     0.00000     0.22214     0.00000  1026.78674  1026.78674
     2      426.66312      666.12909    -3     5    -3   0.44817  -0.09571   0.02467  14.36243   0.08291  62.74891       23311.00       70509.52     1.67424     2.01523   172.41801     0.20554     0.00000   746.70526   746.70526
    12      648.66693      500.21219    -6     6    -4   0.17722   0.04875   0.00932  18.19335   0.05794  72.04350       29441.00       48626.51     1.20387     1.49844   179.02675     0.20906     0.00000   282.90219   282.90219
     8      668.66711      570.49762    -5     5    -3   0.12091  -0.01420   0.00643  15.64350   0.07078  68.09111       18390.00       39268.51     1.09016     1.87730     0.00000     0.19006     0.00000   649.00470   649.00470
    14      868.12976      257.28320    -5     3    -3   0.07804   0.18509   0.00650  10.82893   0.08279  87.48884       11235.00       26825.51     1.51393     1.69490    44.31267     0.21906     0.00000   859.19763   859.19763
     9      331.60034      270.39871    -4     6    -6  -0.48468  -0.02919   0.02191  15.68488   0.05784  86.20852       42788.00       64096.51     1.08490     1.53410   179.90646     0.19071     0.00000   669.00580   669.00580
    10      282.61969      288.49991    -3     5    -5  -0.40149  -0.01460   0.01781  12.97874   0.07064  85.09806       11887.00       35062.51     1.78605     1.88729   157.26495     0.19996     0.00000   868.34680   868.34680
    19      258.62595      619.59875    -3     7    -5  -0.01148  -0.33991   0.00894  19.09508   0.05963  65.97775       11688.00       23714.51     1.17777     1.72129   177.63928     0.21173     0.00000   439.07507   439.07507
    17      858.90741      567.48926    -7     5    -3   0.15889  -0.25766   0.01054  18.25027   0.05967  69.39247        7829.00       16040.51     1.24293     1.55307   178.63475     0.20282     0.00000   722.15057   722.15057
    31      475.04636      454.84888    -6     8    -6   0.01164   0.07972   0.00251  21.97183   0.04658  74.55399        2451.00        5524.51     1.08205     1.51363     0.53741     0.15408     0.00000   455.00833   455.00833
    20      463.67059      498.16238    -5     7    -5   0.37517  -0.09163   0.01982  19.31817   0.05461  71.97979        1013.00        3031.51     1.39804     1.63645   168.89233     0.10225     0.00000  1013.00574  1013.00574
    21      721.86554      228.63251    -8     6    -6   0.05325   0.01715   0.00244  18.98141   0.04655  89.11591       19976.00       28685.51     1.15184     1.24349   179.20451     0.18167     0.00000   753.90198   753.90198
    15      129.39012       39.63143    -3     5    -7  -0.19534   0.27542   0.01067  13.62216   0.05947  99.85379         810.00        2922.51     1.53455     1.80132   176.68692     0.10234     0.00000   475.05203   475.05203
    18      438.70303       20.96208    -6     6    -8   0.42330   0.32383   0.01971  17.14126   0.04648 102.15959       15114.00       29011.51     1.21477     1.67595     6.04639     0.21230     0.00000   129.74759   129.74759
    30     1012.71741      601.53058    -9     5    -3   0.05253  -0.14167   0.00435  21.60246   0.05069  68.96135         483.00        2076.51     1.23689     2.01799     5.96345     0.09719     0.00000   699.03204   699.03204
    16      753.60388      232.68748    -7     5    -5  -0.32259   0.18611   0.01535  16.22885   0.05456  88.87601        7049.00       17294.51     1.09297     1.95023     0.02247     0.29569     0.00000   464.01736   464.01736
    22      145.61693      355.22632    -3     7    -7   0.00078  -0.00255   0.00008  18.14127   0.05244  81.32594        6305.00       15950.51     1.23637     1.88797   179.19034     0.16810     0.00000   145.91870   145.91870
    23      364.76917      259.68826    -5     7    -7  -0.04055  -0.04688   0.00240  18.42666   0.04893  86.88619        8324.00       14299.51     1.20010     1.34135     0.55462     0.17847     0.00000   365.10016   365.10016
    29      784.16541       52.49936   -10     6    -8  -0.05955  -0.09360   0.00375  21.07679   0.03835 100.15433        4707.00        8344.51     1.12104     1.35936   177.33839     0.14543     0.00000   262.01730   262.01730
    33      300.68115       93.01260    -6     8   -10  -0.05712   0.03446   0.00255  21.53625   0.03833  97.33943         615.00        2440.83     1.37278     1.71477    15.85652     0.11131     0.00000   971.99982   971.99982
    24      919.94446      273.23148    -9     5    -5   0.12696  -0.06201   0.00542  19.04924   0.04744  86.63440         791.00        3763.51     1.76126     1.86912    95.05544     0.13427     0.00000   784.07800   784.07800
    26       27.58046      162.47591    -3     7    -9   0.37165   0.06185   0.01259  18.66668   0.04597  92.52492        2959.00       10118.51     1.67773     1.89186    19.76370     0.17694     0.00000   920.13586   920.13586
    25      822.88477       31.32654    -9     5    -7   0.18330  -0.14284   0.00790  18.39891   0.04356 101.33334         740.00        2451.51     1.11588     1.82738   176.55562     0.10489     0.00000   301.01199   301.01199
    27      261.67834       78.66294    -5     7    -9  -0.05633  -0.00756   0.00219  18.85176   0.04354  98.10438        3605.00        8799.51     1.37654     1.65014   167.84373     0.16839     0.00000    27.92697    27.92697
    34      698.72968      226.35617    -9     7    -7   0.07510  -0.12549   0.00525  21.75087   0.04057  89.25103         522.00        2764.24     1.23885     2.33164     5.66252     0.52932     0.00000   615.84363   615.84363
    28      454.66519       47.76707    -7     7    -9   0.00293   0.03094   0.00098  19.89140   0.04052 100.53958        3205.00        9930.51     1.61704     1.81413    36.92404     0.19822     0.00000   823.13202   823.13202
    32      971.58337       85.54667   -11     5    -7  -0.33464  -0.35835   0.01595  21.19120   0.03885  97.71224         621.00        2533.51     1.32513     1.74721    11.69653     0.11737     0.00000   972.01715   972.01715
latticeparameters=   0.54330   0.54478   0.54093  89.94771  90.19038  90.25860
dpsx, dpsy: 179.00000 168.38699
dd, xcent, ycent:      150.57201      540.60303      212.87601
pitch,yaw,roll:  -0.22645   0.61642   0.00000
dev1, dev2, pixdev:   0.01227   0.01206   0.24688
deviatoric strain in crystal reference u1 u2 u3 (*10^3)
   0.56101  -2.26411  -1.65508
  -2.26411   3.26328   0.44708
  -1.65508   0.44708  -3.81154
deviatoric strain in sample reference X Y Z (*10^3)
  -0.22961  -0.94177   0.53702
  -0.94177   4.54558   0.13954
   0.53702   0.13954  -4.30322
deviatoric principal strains (*10^3):   4.72476  -0.33147  -4.38054
deviatoric strain principal axes in sample reference:
  -0.18631   0.98248   0.00410
   0.97319   0.18398   0.13805
  -0.13487  -0.02971   0.99042
deviatoric stress in crystal reference u1 u2 u3 (MPa)
       57.86980     -360.03949     -263.19019
     -360.03949      332.69128       71.09436
     -263.19019       71.09436     -386.81790
deviatoric stress in sample reference X Y Z (MPa)
      -36.43404     -207.46014      -22.08726
     -207.46014      559.41772       17.64679
      -22.08726       17.64679     -519.24054
deviatoric principal stresses (MPa):      625.01471     -100.95531     -520.31622
deviatoric stress principal axes in sample reference:
       -0.29983        0.95377        0.02050
       -0.95306       -0.30042        0.03765
        0.04207       -0.00825        0.99908
total strain in sample reference X Y Z (*10^3)
   1.53941  -0.94177   0.53702
  -0.94177   6.31459   0.13954
   0.53702   0.13954  -2.53421
total principal strains (*10^3):   6.49377   1.43755  -2.61152
total strain principal axes in sample reference:
  -0.18631   0.98248   0.00410
   0.97319   0.18398   0.13805
  -0.13488  -0.02971   0.99042
total stress in crystal reference u1 u2 u3 (MPa)
      577.11029     -360.03949     -263.19019
     -360.03949      851.93182       71.09436
     -263.19019       71.09436      132.42262
total stress in sample reference X Y Z (MPa)
      482.80649     -207.46014      -22.08726
     -207.46014     1078.65833       17.64679
      -22.08726       17.64679        0.00000
total principal stresses (MPa):     1144.25513      418.28525       -1.07568
total stress principal axes in sample reference:
       -0.29983        0.95377        0.02050
       -0.95306       -0.30042        0.03765
        0.04207       -0.00825        0.99908
dilatational strain (*10^-3):        1.76901
hydrostatic stress (MPa):      520.48828
Von Mises stress (MPa):     1003.66302
equivalent strain (*10^-3):        5.26765
equivalent stress (MPa):     1003.66302
maximum resolved shear stress:       24.34310
coordinates of a, b, c in X, Y, Z
   0.44454  -0.20241   0.23860
   0.19244   0.50583   0.06495
  -0.24576   0.03226   0.48114
coordinates of a*, b*, c* in X, Y, Z
   1.50619  -0.67765   0.81477
   0.65597   1.70123   0.22102
  -0.83547   0.10641   1.64683
