\\vmware-host\Shared Folders\Desktop\SiHyperlaueFinal_shielded_results\results_00061.STR
Number of grains:       1
Grain no:       1   Grainlist file index:       1    Number of peaks:      33
no   x(exp)  y(exp)  h  k  l xdev  ydev  angdev  energy  dspace  twotheta  intens   integr  xwidth   ywidth  tilt  rfactor   pearson  xcentroid  ycentroid
     2      392.62753      871.98035    -2     4    -2  -0.32216  -0.11487   0.01871  12.44745   0.11105  53.29207       43314.00      152314.27     1.78406     2.08042   178.48630     0.20750     0.00000   746.63782   746.63782
     5      746.31531      951.26117    -3     3    -1  -0.33476   0.53669   0.02169  11.59337   0.12490  50.69697       42196.00      110214.27     1.74704     1.78618   116.11419     0.21056     0.00000  1026.75830  1026.75830
    13      991.67523      299.62173    -4     2    -2   0.10851  -0.05477   0.00445   8.25864   0.11084  85.25814       39858.00       69478.27     1.22968     1.56860   179.14909     0.22335     0.00000   282.87836   282.87836
     3      546.04388      225.15323    -3     3    -3   0.11164   0.18396   0.00797   8.45269   0.10446  89.19007       31150.00       47651.27     1.23520     1.23964   148.23827     0.18140     0.00000   992.02020   992.02020
     6     1026.44092      909.50311    -5     3    -1  -0.28604   0.26400   0.01429  14.49316   0.09197  55.43371       41473.00      109847.27     1.66200     1.90237   160.29724     0.25205     0.00000   925.34064   925.34064
     7      924.99286      683.03760    -6     4    -2   0.08917   0.01581   0.00414  16.08268   0.07268  64.06168         447.00        1418.27     1.17217     1.52197   176.19193     0.07029     0.00000    62.00329    62.00329
    36       61.82647      407.69745    -1     3    -3   0.22529   0.28394   0.01222   7.85961   0.12447  78.64946           0.00           0.00     0.00000     0.00000     0.00000     0.00000     0.00000     0.00000     0.00000
     4      426.62500      666.11792    -3     5    -3   0.45656  -0.13047   0.02519  14.35938   0.08292  62.75135       58360.00      198122.27     1.80629     1.87693    11.34813     0.22919     0.00000   546.37579   546.37579
    14      648.66748      500.23172    -6     6    -4   0.16377   0.01659   0.00854  18.19109   0.05795  72.04420       13917.00       24398.27     1.21269     1.46438     4.22803     0.18398     0.00000   258.91867   258.91867
     8      668.66681      570.50275    -5     5    -3   0.10680  -0.03254   0.00575  15.64152   0.07079  68.09179       40323.00      189356.27     1.90333     2.80313   175.33366     0.30587     0.00000   426.84390   426.84390
    11      868.09460      257.30536    -5     3    -3   0.08342   0.20553   0.00716  10.82860   0.08280  87.48619       21641.00       61096.27     1.78119     1.84991   111.98175     0.21874     0.00000   868.37335   868.37335
    10      331.59222      270.35913    -4     6    -6  -0.49833  -0.03674   0.02254  15.68213   0.05785  86.21151       55546.00       82902.27     1.08455     1.53084     0.10533     0.19343     0.00000   669.00238   669.00238
     9      282.60965      288.46509    -3     5    -5  -0.42086  -0.03346   0.01870  12.97630   0.07065  85.10143       22635.00       46919.27     1.09051     1.86310     0.00364     0.19543     0.00000   649.01062   649.01062
    19      258.61685      619.59479    -3     7    -5  -0.05611  -0.39249   0.01084  19.09048   0.05964  65.98105       19589.00       38711.27     1.24288     1.68892     7.00664     0.23189     0.00000   129.71458   129.71458
    17      858.86530      567.51813    -7     5    -3   0.17286  -0.27365   0.01134  18.24911   0.05968  69.39157        8339.00       20824.27     1.08839     1.94688   179.97339     0.30291     0.00000   464.00156   464.00156
    31      475.02115      454.85172    -6     8    -6   0.01934   0.04105   0.00162  21.96805   0.04659  74.55617         556.00        2106.27     1.22829     1.92530     5.41960     0.09431     0.00000   699.01294   699.01294
    20      463.66943      498.16174    -5     7    -5   0.35626  -0.12979   0.01900  19.31467   0.05462  71.98210       14080.00       28358.27     1.17273     1.72201   177.62521     0.21971     0.00000   439.07956   439.07956
    22      721.84296      228.64439    -8     6    -6   0.06496   0.02560   0.00302  18.98015   0.04655  89.11460       23549.00       34500.27     1.16494     1.27580   179.01855     0.19111     0.00000   753.86981   753.86981
    15      129.38013       39.62015    -3     5    -7  -0.21354   0.22326   0.01003  13.61990   0.05948  99.85729       14437.00       31917.27     1.52125     1.56968   122.05757     0.22493     0.00000   859.18964   859.18964
    18      438.70102       20.96403    -6     6    -8   0.42973   0.31053   0.01974  17.13938   0.04649 102.16030        9529.00       18853.27     1.21965     1.50615   179.16296     0.21531     0.00000   722.16187   722.16187
    30     1012.69189      601.55255    -9     5    -3   0.02219  -0.13889   0.00368  21.60191   0.05069  68.95957        5342.00        9352.27     1.11474     1.34664   178.79889     0.15301     0.00000   262.01062   262.01062
    16      753.59149      232.69353    -7     5    -5  -0.32408   0.20561   0.01566  16.22792   0.05456  88.87438         945.00        3242.27     1.56345     1.77297   172.60677     0.10810     0.00000   475.06088   475.06088
    21      145.60878      355.19214    -3     7    -7  -0.04918  -0.03472   0.00231  18.13733   0.05245  81.32998        1252.00        3357.27     1.32643     1.58609   173.65758     0.10440     0.00000  1013.00226  1013.00226
    23      364.75494      259.68344    -5     7    -7  -0.04365  -0.08421   0.00337  18.42359   0.04893  86.88889        7344.00       19217.27     1.25752     1.89577   179.34912     0.17494     0.00000   145.90617   145.90617
    29      784.16351       52.56230   -10     6    -8  -0.07296  -0.10182   0.00430  21.07612   0.03835 100.15103        3990.00       11268.27     1.39191     1.59710     0.00000     0.22469     0.00000   823.13702   823.13702
    32      300.68161       92.96661    -6     8   -10  -0.06862   0.03866   0.00302  21.53303   0.03834  97.34198        2800.00        6081.27     1.08045     1.50391     1.18697     0.15874     0.00000   455.02145   455.02145
    24      919.91223      273.29846    -9     5    -5   0.11970  -0.08009   0.00537  19.04888   0.04744  86.63140       10069.00       16811.27     1.20601     1.30877     4.23210     0.18237     0.00000   365.10568   365.10568
    26       27.57140      162.42789    -3     7    -9   0.31844   0.03291   0.01074  18.66303   0.04597  92.52913         867.00        2596.27     1.13458     1.77517   176.57477     0.10400     0.00000   300.99615   300.99615
    25      822.79108       31.45854    -9     5    -7   0.25551  -0.20873   0.01116  18.39852   0.04356 101.32945         871.00        3881.27     1.52179     1.83557   166.61964     0.14247     0.00000   784.10718   784.10718
    27      261.67960       78.65711    -5     7    -9  -0.07161  -0.04851   0.00311  18.84886   0.04354  98.10718        3696.00       11507.27     1.62880     1.83281    18.47949     0.19373     0.00000   920.14124   920.14124
    35      698.72107      226.34035    -9     7    -7   0.07467  -0.09330   0.00449  21.74930   0.04058  89.24997           0.00           0.00     0.00000     0.00000     0.00000     0.00000     0.00000     0.00000     0.00000
    28      454.66565       47.75756    -7     7    -9   0.00552   0.02922   0.00094  19.88921   0.04053 100.54029        4082.00       10169.27     1.38847     1.72443   169.63081     0.17331     0.00000    27.90851    27.90851
    33      971.55371       85.57520   -11     5    -7  -0.35903  -0.30119   0.01557  21.19129   0.03885  97.70745         657.00        2374.27     1.36987     1.65884    18.80183     0.10735     0.00000   971.96777   971.96777
latticeparameters=   0.54323   0.54486   0.54092  89.94930  90.19497  90.25741
dpsx, dpsy: 179.00000 168.38699
dd, xcent, ycent:      150.57201      540.60303      212.87601
pitch,yaw,roll:  -0.22645   0.61642   0.00000
dev1, dev2, pixdev:   0.01239   0.01216   0.25709
deviatoric strain in crystal reference u1 u2 u3 (*10^3)
   0.42698  -2.25405  -1.69490
  -2.25405   3.42069   0.43317
  -1.69490   0.43317  -3.83437
deviatoric strain in sample reference X Y Z (*10^3)
  -0.26428  -0.84445   0.48253
  -0.84445   4.65547   0.18293
   0.48253   0.18293  -4.37789
deviatoric principal strains (*10^3):   4.79750  -0.34177  -4.44243
deviatoric strain principal axes in sample reference:
  -0.16352   0.98648   0.01107
   0.97911   0.16090   0.12435
  -0.12088  -0.03117   0.99218
deviatoric stress in crystal reference u1 u2 u3 (MPa)
       44.27431     -358.43887     -269.52356
     -358.43887      348.73428       68.88241
     -269.52356       68.88241     -389.10522
deviatoric stress in sample reference X Y Z (MPa)
      -37.68221     -197.35454      -28.91221
     -197.35454      570.27405       22.33385
      -28.91221       22.33385     -528.68848
deviatoric principal stresses (MPa):      629.47858      -95.07731     -530.49786
deviatoric stress principal axes in sample reference:
       -0.28459        0.95831        0.02558
       -0.95711       -0.28554        0.04911
        0.05437       -0.01051        0.99847
total strain in sample reference X Y Z (*10^3)
   1.53692  -0.84445   0.48253
  -0.84445   6.45667   0.18293
   0.48253   0.18293  -2.57669
total principal strains (*10^3):   6.59870   1.45943  -2.64123
total strain principal axes in sample reference:
  -0.16352   0.98648   0.01107
   0.97911   0.16090   0.12435
  -0.12088  -0.03117   0.99218
total stress in crystal reference u1 u2 u3 (MPa)
      572.96277     -358.43887     -269.52356
     -358.43887      877.42273       68.88241
     -269.52356       68.88241      139.58325
total stress in sample reference X Y Z (MPa)
      491.00626     -197.35454      -28.91221
     -197.35454     1098.96252       22.33385
      -28.91221       22.33385        0.00000
total principal stresses (MPa):     1158.16699      433.61121       -1.80942
total stress principal axes in sample reference:
       -0.28459        0.95831        0.02558
       -0.95711       -0.28554        0.04911
        0.05437       -0.01051        0.99847
dilatational strain (*10^-3):        1.80120
hydrostatic stress (MPa):      529.98962
Von Mises stress (MPa):     1014.91815
equivalent strain (*10^-3):        5.34590
equivalent stress (MPa):     1014.91815
maximum resolved shear stress:       13.97124
coordinates of a, b, c in X, Y, Z
   0.44440  -0.20243   0.23850
   0.19253   0.50580   0.06499
  -0.24574   0.03225   0.48106
coordinates of a*, b*, c* in X, Y, Z
   1.50604  -0.67796   0.81479
   0.65600   1.70063   0.22112
  -0.83531   0.10637   1.64669
