\\vmware-host\Shared Folders\Desktop\SiHyperlaueFinal_shielded_results\results_00093.STR
Number of grains:       1
Grain no:       1   Grainlist file index:       1    Number of peaks:      33
no   x(exp)  y(exp)  h  k  l xdev  ydev  angdev  energy  dspace  twotheta  intens   integr  xwidth   ywidth  tilt  rfactor   pearson  xcentroid  ycentroid
     2      392.63644      871.97003    -2     4    -2  -0.31667  -0.10462   0.01836  12.44767   0.11105  53.29201       41834.00      138449.97     1.72501     2.04710   178.61089     0.21175     0.00000   746.66168   746.66168
     5      746.36267      951.25720    -3     3    -1  -0.36238   0.53587   0.02305  11.59334   0.12490  50.69731       40208.00      101412.96     1.58726     1.91934   116.39920     0.18438     0.00000  1026.77100  1026.77100
    13      991.68066      299.61639    -4     2    -2   0.12544  -0.07743   0.00530   8.25853   0.11084  85.25982       38313.00       65560.96     1.21863     1.55805   179.33846     0.21866     0.00000   282.88596   282.88596
     3      546.06085      225.13942    -3     3    -3   0.09984   0.18582   0.00767   8.45276   0.10446  89.19085       29497.00       45911.96     1.24189     1.24317   156.92000     0.18965     0.00000   992.02405   992.02405
     7     1026.45728      909.49158    -5     3    -1  -0.26960   0.26768   0.01364  14.49295   0.09197  55.43446         438.00        1526.96     1.16260     1.58374     3.63068     0.07687     0.00000    62.01039    62.01039
     6      925.01709      683.01941    -6     4    -2   0.08955   0.01923   0.00416  16.08248   0.07268  64.06264       39499.00      103898.96     1.61974     1.96205   153.77673     0.24523     0.00000   925.35583   925.35583
    36       61.87128      407.67865    -1     3    -3   0.19566   0.30821   0.01186   7.85987   0.12446  78.64909           0.00           0.00     0.00000     0.00000     0.00000     0.00000     0.00000     0.00000     0.00000
     4      426.63837      666.11517    -3     5    -3   0.45527  -0.13088   0.02512  14.35958   0.08292  62.75148       55334.00      187585.97     1.81810     1.87280    10.89089     0.22784     0.00000   546.38416   546.38416
    14      648.66736      500.21161    -6     6    -4   0.17594   0.02469   0.00918  18.19109   0.05795  72.04494       13036.00       22959.96     1.20302     1.46822     3.84912     0.18482     0.00000   258.92859   258.92859
     8      668.66699      570.49237    -5     5    -3   0.12014  -0.03362   0.00645  15.64150   0.07079  68.09248       37321.00      180088.97     1.90435     2.86660   175.51936     0.30682     0.00000   426.85818   426.85818
    11      868.12207      257.28113    -5     3    -3   0.07100   0.20497   0.00691  10.82852   0.08280  87.48773       19806.00       57410.96     1.80697     1.86566   106.96770     0.21742     0.00000   868.37946   868.37946
    10      331.59467      270.35760    -4     6    -6  -0.49484  -0.03785   0.02239  15.68245   0.05785  86.21168       51876.00       77977.96     1.08512     1.54734   179.94875     0.19274     0.00000   669.00360   669.00360
     9      282.61395      288.47021    -3     5    -5  -0.41821  -0.03933   0.01860  12.97659   0.07064  85.10147       21287.00       45024.96     1.08885     1.87076     0.02629     0.19368     0.00000   649.00604   649.00604
    19      258.62036      619.58698    -3     7    -5  -0.04646  -0.38406   0.01047  19.09094   0.05964  65.98093       18854.00       37173.96     1.23514     1.69033     6.68968     0.22873     0.00000   129.71701   129.71701
    17      858.88782      567.50153    -7     5    -3   0.17028  -0.27370   0.01125  18.24892   0.05968  69.39261        7991.00       19733.96     1.08808     1.95004   179.96973     0.30088     0.00000   464.00403   464.00403
    31      475.02795      454.83954    -6     8    -6   0.02162   0.04656   0.00182  21.96829   0.04659  74.55657         515.00        2201.96     1.31106     2.02212     1.49554     0.09781     0.00000   699.02240   699.02240
    20      463.66974      498.15573    -5     7    -5   0.36570  -0.12966   0.01949  19.31489   0.05462  71.98243       13484.00       26856.96     1.17691     1.71043   177.55585     0.21420     0.00000   439.06387   439.06387
    22      721.87238      228.63521    -8     6    -6   0.04445   0.01527   0.00205  18.98013   0.04655  89.11586       22644.00       33321.96     1.15738     1.27275   178.93127     0.19359     0.00000   753.89014   753.89014
    15      129.38084       39.62344    -3     5    -7  -0.21015   0.22545   0.00999  13.62032   0.05948  99.85699       13523.00       30970.96     1.50417     1.65088    21.74962     0.22225     0.00000   859.20581   859.20581
    18      438.70221       20.95385    -6     6    -8   0.42785   0.31143   0.01968  17.13965   0.04649 102.16087        8831.00       18222.96     1.23390     1.56421   178.60342     0.21398     0.00000   722.16595   722.16595
    30     1012.71497      601.56781    -9     5    -3   0.02764  -0.17282   0.00458  21.60158   0.05069  68.96078        5152.00        9025.96     1.11555     1.33785   176.91560     0.15205     0.00000   262.03122   262.03122
    16      753.59302      232.69060    -7     5    -5  -0.31560   0.18780   0.01509  16.22787   0.05456  88.87571         906.00        3091.96     1.53526     1.77638   179.03117     0.10418     0.00000   475.07535   475.07535
    21      145.61456      355.20169    -3     7    -7  -0.04362  -0.04062   0.00220  18.13786   0.05245  81.32974        1190.00        3330.96     1.34699     1.59122   170.29276     0.10777     0.00000  1013.02087  1013.02087
    23      364.76379      259.68469    -5     7    -7  -0.04706  -0.08948   0.00360  18.42393   0.04893  86.88914        7148.00       18284.96     1.24206     1.89293   179.72383     0.17189     0.00000   145.92529   145.92529
    29      784.12585       52.54360   -10     6    -8  -0.02845  -0.10951   0.00356  21.07610   0.03835 100.15262        3795.00       11225.96     1.50589     1.88441    73.89983     0.20298     0.00000   823.12158   823.12158
    32      300.67572       93.01313    -6     8   -10  -0.06074  -0.00993   0.00245  21.53352   0.03834  97.34211        2671.00        5905.96     1.07791     1.50194   179.68523     0.16027     0.00000   454.99078   454.99078
    25      919.93622      273.25558    -9     5    -5   0.11358  -0.06352   0.00494  19.04869   0.04744  86.63301         838.00        3710.96     1.60592     1.89299    82.18541     0.13807     0.00000   784.07727   784.07727
    26       27.57444      162.43230    -3     7    -9   0.32636   0.03711   0.01101  18.66366   0.04597  92.52867         785.00        2536.96     1.11944     1.81672     1.95184     0.10314     0.00000   300.98599   300.98599
    24      822.88452       31.35600    -9     5    -7   0.16991  -0.13511   0.00736  18.39848   0.04356 101.33115        9518.00       16044.96     1.20139     1.32937     0.91974     0.18036     0.00000   365.10779   365.10779
    27      261.67914       78.65961    -5     7    -9  -0.06899  -0.05138   0.00306  18.84933   0.04354  98.10721        3327.00       11086.96     1.66772     1.87780    19.00192     0.18484     0.00000   920.16656   920.16656
    34      698.75867      226.30081    -9     7    -7   0.04527  -0.07232   0.00308  21.74929   0.04058  89.25117         522.00        2764.24     1.23885     2.33164     5.66252     0.52932     0.00000   615.84363   615.84363
    28      454.66537       47.76188    -7     7    -9   0.00587   0.01512   0.00053  19.88951   0.04053 100.54090        3857.00        9753.96     1.39399     1.72053   169.19588     0.17434     0.00000    27.92689    27.92689
    33      971.51379       85.53464   -11     5    -7  -0.30256  -0.29506   0.01387  21.19112   0.03885  97.70939         591.00        2411.96     1.46731     1.70940     8.86990     0.10842     0.00000   971.98383   971.98383
latticeparameters=   0.54324   0.54486   0.54091  89.94894  90.19475  90.25860
dpsx, dpsy: 179.00000 168.38699
dd, xcent, ycent:      150.57201      540.60303      212.87601
pitch,yaw,roll:  -0.22645   0.61642   0.00000
dev1, dev2, pixdev:   0.01216   0.01201   0.25095
deviatoric strain in crystal reference u1 u2 u3 (*10^3)
   0.44792  -2.26443  -1.69294
  -2.26443   3.41887   0.43626
  -1.69294   0.43626  -3.85341
deviatoric strain in sample reference X Y Z (*10^3)
  -0.26286  -0.85840   0.49685
  -0.85840   4.66410   0.17663
   0.49685   0.17663  -4.38786
deviatoric principal strains (*10^3):   4.81028  -0.34150  -4.45541
deviatoric strain principal axes in sample reference:
  -0.16587   0.98610   0.00998
   0.97834   0.16328   0.12726
  -0.12386  -0.03087   0.99182
deviatoric stress in crystal reference u1 u2 u3 (MPa)
       46.40821     -360.08926     -269.21085
     -360.08926      348.55399       69.37334
     -269.21085       69.37334     -391.03641
deviatoric stress in sample reference X Y Z (MPa)
      -38.01066     -199.19310      -27.50157
     -199.19310      571.57300       21.58858
      -27.50157       21.58858     -529.63654
deviatoric principal stresses (MPa):      631.59271      -96.38960     -531.27734
deviatoric stress principal axes in sample reference:
       -0.28597        0.95792        0.02458
       -0.95685       -0.28684        0.04645
        0.05154       -0.01024        0.99862
total strain in sample reference X Y Z (*10^3)
   1.54157  -0.85840   0.49685
  -0.85840   6.46853   0.17663
   0.49685   0.17663  -2.58343
total principal strains (*10^3):   6.61471   1.46294  -2.65097
total strain principal axes in sample reference:
  -0.16587   0.98610   0.00998
   0.97834   0.16328   0.12726
  -0.12386  -0.03087   0.99182
total stress in crystal reference u1 u2 u3 (MPa)
      576.04474     -360.08926     -269.21085
     -360.08926      878.19049       69.37334
     -269.21085       69.37334      138.60011
total stress in sample reference X Y Z (MPa)
      491.62585     -199.19310      -27.50157
     -199.19310     1101.20947       21.58858
      -27.50157       21.58858        0.00000
total principal stresses (MPa):     1161.22913      433.24695       -1.64080
total stress principal axes in sample reference:
       -0.28597        0.95792        0.02458
       -0.95685       -0.28684        0.04645
        0.05154       -0.01024        0.99862
dilatational strain (*10^-3):        1.80443
hydrostatic stress (MPa):      530.94513
Von Mises stress (MPa):     1017.68176
equivalent strain (*10^-3):        5.36072
equivalent stress (MPa):     1017.68176
maximum resolved shear stress:       14.98693
coordinates of a, b, c in X, Y, Z
   0.44442  -0.20243   0.23852
   0.19251   0.50582   0.06499
  -0.24575   0.03224   0.48106
coordinates of a*, b*, c* in X, Y, Z
   1.50607  -0.67788   0.81480
   0.65596   1.70068   0.22114
  -0.83537   0.10634   1.64675
