\\vmware-host\Shared Folders\Desktop\SiHyperlaueFinal_shielded_results\results_00105.STR
Number of grains:       1
Grain no:       1   Grainlist file index:       1    Number of peaks:      32
no   x(exp)  y(exp)  h  k  l xdev  ydev  angdev  energy  dspace  twotheta  intens   integr  xwidth   ywidth  tilt  rfactor   pearson  xcentroid  ycentroid
     2      392.63901      871.98987    -2     4    -2  -0.29791  -0.11560   0.01734  12.44984   0.11103  53.29154       29881.00       96020.89     1.70094     2.04173   178.54103     0.21099     0.00000   746.67926   746.67926
     5      746.37909      951.27869    -3     3    -1  -0.38407   0.51168   0.02394  11.59467   0.12489  50.69737       33540.00       84029.89     1.57014     1.84129   168.53017     0.22303     0.00000  1026.77917  1026.77917
    14      991.68591      299.62042    -4     2    -2   0.13879  -0.09426   0.00598   8.25875   0.11083  85.26061       12026.00       27993.89     1.50527     1.67413    32.41138     0.21929     0.00000   859.20465   859.20465
     4      546.06995      225.14748    -3     3    -3   0.08986   0.19825   0.00773   8.45358   0.10445  89.18951       40429.00      140300.89     1.82466     1.87502    16.21304     0.22589     0.00000   546.38007   546.38007
     7     1026.48254      909.51727    -5     3    -1  -0.28847   0.24128   0.01419  14.49383   0.09196  55.43457       30667.00      148359.89     1.90636     2.90429   175.32356     0.31053     0.00000   426.88135   426.88135
     6      924.99683      682.99524    -6     4    -2   0.11162   0.04443   0.00522  16.08358   0.07267  64.06261       34015.00       89923.89     1.68658     1.83727    19.52887     0.24982     0.00000   925.34631   925.34631
     3      426.64600      666.11890    -3     5    -3   0.46200  -0.11021   0.02545  14.36195   0.08291  62.75019       24558.00       38158.89     1.23493     1.24864   173.92709     0.18184     0.00000   992.03412   992.03412
    12      648.66705      500.21744    -6     6    -4   0.17409   0.03604   0.00912  18.19314   0.05794  72.04393       31185.00       52761.89     1.21225     1.53789   179.47533     0.21297     0.00000   282.89346   282.89346
     8      668.66687      570.48895    -5     5    -3   0.11761  -0.01479   0.00626  15.64330   0.07078  68.09162       19685.00       41364.89     1.08929     1.86974     0.06918     0.19039     0.00000   649.00409   649.00409
    13      868.11707      257.29117    -5     3    -3   0.08228   0.18849   0.00668  10.82898   0.08279  87.48813       12279.00       21479.89     1.20070     1.44855     4.01172     0.18304     0.00000   258.92389   258.92389
     9      331.59485      270.36670    -4     6    -6  -0.48067  -0.01051   0.02170  15.68453   0.05784  86.20937       45084.00       67942.89     1.08508     1.55251   179.99751     0.19066     0.00000   669.00952   669.00952
    10      282.61661      288.47955    -3     5    -5  -0.40084  -0.00995   0.01777  12.97841   0.07064  85.09904       13188.00       38901.89     1.81974     1.84123   172.26891     0.20716     0.00000   868.35309   868.35309
    19      258.62122      619.59009    -3     7    -5  -0.01266  -0.35939   0.00945  19.09431   0.05963  65.97926       11930.00       24257.89     1.17661     1.71858   177.63925     0.21315     0.00000   439.08472   439.08472
    17      858.89661      567.49658    -7     5    -3   0.16121  -0.26526   0.01077  18.25026   0.05967  69.39242        8008.00       16345.89     1.23733     1.55206   178.64153     0.20605     0.00000   722.16943   722.16943
    30      475.05991      454.85300    -6     8    -6  -0.00374   0.06182   0.00188  21.97136   0.04659  74.55482         515.00        2130.89     1.22952     1.94663     4.41895     0.10047     0.00000   698.99939   698.99939
    20      463.66968      498.15631    -5     7    -5   0.37395  -0.10148   0.01979  19.31771   0.05461  71.98073        1085.00        3133.89     1.34744     1.57054   169.17094     0.10752     0.00000  1013.02521  1013.02521
    22      721.86749      228.63287    -8     6    -6   0.04791   0.02244   0.00226  18.98138   0.04655  89.11555        6547.00       16983.89     1.23786     1.89664   179.43140     0.17115     0.00000   145.93105   145.93105
    15      129.38150       39.62534    -3     5    -7  -0.18886   0.26705   0.01033  13.62184   0.05947  99.85461         837.00        3145.89     1.51889     1.82948   177.46831     0.11028     0.00000   475.06299   475.06299
    18      438.70172       20.96189    -6     6    -8   0.42655   0.32315   0.01981  17.14105   0.04649 102.15965       15398.00       29972.89     1.22671     1.68769     6.40569     0.21634     0.00000   129.74290   129.74290
    31     1012.70880      601.55847    -9     5    -3   0.04560  -0.16522   0.00472  21.60260   0.05069  68.96099        2556.00        5469.89     1.08010     1.49431     1.23624     0.14738     0.00000   455.00912   455.00912
    16      753.59534      232.69041    -7     5    -5  -0.31832   0.19016   0.01523  16.22886   0.05456  88.87557        7375.00       18011.89     1.08937     1.94640     0.06789     0.29839     0.00000   464.00290   464.00290
    21      145.61548      355.20709    -3     7    -7  -0.00423  -0.00524   0.00024  18.14068   0.05244  81.32723       20130.00       29351.89     1.15763     1.26629   179.06180     0.18466     0.00000   753.88074   753.88074
    23      364.76434      259.68365    -5     7    -7  -0.03670  -0.05393   0.00242  18.42628   0.04893  86.88694        8623.00       14526.89     1.19541     1.32958     1.71616     0.17426     0.00000   365.11368   365.11368
    29      784.13611       52.57636   -10     6    -8  -0.03487  -0.15553   0.00499  21.07684   0.03835 100.15342        4803.00        8433.89     1.12435     1.35290   176.47495     0.14504     0.00000   262.00229   262.00229
    33      300.68408       92.97857    -6     8   -10  -0.05978   0.05924   0.00305  21.53584   0.03833  97.34000         610.00        2434.22     1.36405     1.79847    16.01220     0.11308     0.00000   971.97046   971.97046
    24      919.92914      273.23502    -9     5    -5   0.13147  -0.05251   0.00550  19.04937   0.04744  86.63360         836.00        3610.89     1.53048     1.83975   164.16809     0.13597     0.00000   784.08215   784.08215
    26       27.58123      162.44521    -3     7    -9   0.36347   0.07209   0.01236  18.66613   0.04597  92.52605        3084.00       10428.89     1.65550     1.88931    14.38509     0.17771     0.00000   920.13220   920.13220
    25      822.88574       31.34589    -9     5    -7   0.17627  -0.14434   0.00770  18.39898   0.04356 101.33229         795.00        2408.89     1.13352     1.80271     3.78704     0.09639     0.00000   300.99637   300.99637
    27      261.68170       78.66261    -5     7    -9  -0.05976  -0.01766   0.00237  18.85138   0.04354  98.10501        3669.00        8924.89     1.38104     1.69039   169.31963     0.16443     0.00000    27.92505    27.92505
    34      698.73926      226.36366    -9     7    -7   0.06272  -0.12834   0.00498  21.75082   0.04057  89.25073         522.00        2764.24     1.23885     2.33164     5.66252     0.52932     0.00000   615.84363   615.84363
    28      454.66614       47.75900    -7     7    -9   0.00359   0.03800   0.00120  19.89117   0.04052 100.53964        3460.00       10158.89     1.48894     1.90181    39.60757     0.20013     0.00000   823.11627   823.11627
    32      971.57196       85.55295   -11     5    -7  -0.33672  -0.34189   0.01569  21.19137   0.03885  97.71096         652.00        2455.89     1.34612     1.57626    10.26856     0.11296     0.00000   971.97394   971.97394
latticeparameters=   0.54329   0.54479   0.54094  89.94696  90.19042  90.25697
dpsx, dpsy: 179.00000 168.38699
dd, xcent, ycent:      150.57201      540.60303      212.87601
pitch,yaw,roll:  -0.22645   0.61642   0.00000
dev1, dev2, pixdev:   0.01232   0.01214   0.25172
deviatoric strain in crystal reference u1 u2 u3 (*10^3)
   0.53804  -2.24986  -1.65543
  -2.24986   3.28232   0.45366
  -1.65543   0.45366  -3.80757
deviatoric strain in sample reference X Y Z (*10^3)
  -0.23529  -0.92232   0.53318
  -0.92232   4.54964   0.15636
   0.53318   0.15636  -4.30156
deviatoric principal strains (*10^3):   4.72162  -0.32999  -4.37884
deviatoric strain principal axes in sample reference:
  -0.18227   0.98323   0.00627
   0.97402   0.17969   0.13783
  -0.13440  -0.03123   0.99044
deviatoric stress in crystal reference u1 u2 u3 (MPa)
       55.53592     -357.77261     -263.24695
     -357.77261      334.62921       72.14040
     -263.24695       72.14040     -386.41190
deviatoric stress in sample reference X Y Z (MPa)
      -36.64280     -205.12492      -22.18087
     -205.12492      559.31354       19.97295
      -22.18087       19.97295     -518.91748
deviatoric principal stresses (MPa):      623.66742      -99.86655     -520.04767
deviatoric stress principal axes in sample reference:
       -0.29728        0.95453        0.02246
       -0.95390       -0.29793        0.03629
        0.04133       -0.01063        0.99909
total strain in sample reference X Y Z (*10^3)
   1.53262  -0.92232   0.53318
  -0.92232   6.31756   0.15636
   0.53318   0.15636  -2.53365
total principal strains (*10^3):   6.48954   1.43792  -2.61093
total strain principal axes in sample reference:
  -0.18227   0.98323   0.00627
   0.97402   0.17969   0.13783
  -0.13440  -0.03123   0.99044
total stress in crystal reference u1 u2 u3 (MPa)
      574.45343     -357.77261     -263.24695
     -357.77261      853.54669       72.14040
     -263.24695       72.14040      132.50560
total stress in sample reference X Y Z (MPa)
      482.27469     -205.12492      -22.18087
     -205.12492     1078.23108       19.97295
      -22.18087       19.97295        0.00000
total principal stresses (MPa):     1142.58496      419.05090       -1.13015
total stress principal axes in sample reference:
       -0.29728        0.95453        0.02246
       -0.95390       -0.29793        0.03629
        0.04133       -0.01063        0.99909
dilatational strain (*10^-3):        1.76791
hydrostatic stress (MPa):      520.16858
Von Mises stress (MPa):     1002.03241
equivalent strain (*10^-3):        5.26478
equivalent stress (MPa):     1002.03241
maximum resolved shear stress:       23.05946
coordinates of a, b, c in X, Y, Z
   0.44451  -0.20240   0.23859
   0.19246   0.50582   0.06495
  -0.24575   0.03226   0.48113
coordinates of a*, b*, c* in X, Y, Z
   1.50616  -0.67772   0.81476
   0.65598   1.70115   0.22098
  -0.83545   0.10642   1.64679
