\\vmware-host\Shared Folders\Desktop\SiHyperlaueFinal_shielded_results\results_00032.STR
Number of grains:       1
Grain no:       1   Grainlist file index:       1    Number of peaks:      33
no   x(exp)  y(exp)  h  k  l xdev  ydev  angdev  energy  dspace  twotheta  intens   integr  xwidth   ywidth  tilt  rfactor   pearson  xcentroid  ycentroid
     2      392.62192      871.98615    -2     4    -2  -0.32929  -0.10508   0.01908  12.44789   0.11105  53.29148       57577.00      199898.39     1.80681     2.06581   178.01843     0.21497     0.00000   746.61157   746.61157
     5      746.29169      951.29968    -3     3    -1  -0.32642   0.52131   0.02113  11.59375   0.12490  50.69597       48546.00      125200.39     1.67268     1.84250   104.79795     0.19917     0.00000  1026.74634  1026.74634
    13      991.66541      299.62549    -4     2    -2   0.12167  -0.04109   0.00480   8.25868   0.11084  85.25715       48538.00       83819.39     1.23302     1.55470   179.03510     0.22760     0.00000   282.87320   282.87320
     3      546.02612      225.15457    -3     3    -3   0.12496   0.19125   0.00856   8.45276   0.10446  89.18950       38480.00       57873.39     1.22331     1.23384   173.03563     0.18202     0.00000   991.99805   991.99805
     6     1026.42578      909.53955    -5     3    -1  -0.28201   0.25843   0.01407  14.49354   0.09197  55.43237       45241.00      121011.39     1.60496     1.94960   105.74587     0.24904     0.00000   925.33142   925.33142
     7      924.97034      683.06250    -6     4    -2   0.10260   0.01384   0.00476  16.08301   0.07268  64.06048        1041.00        2305.39     1.17210     1.40494   179.31004     0.08098     0.00000    62.03652    62.03652
    35       61.79835      407.69711    -1     3    -3   0.24696   0.29008   0.01299   7.85977   0.12446  78.64917           0.00           0.00     0.00000     0.00000     0.00000     0.00000     0.00000     0.00000     0.00000
     4      426.61087      666.12970    -3     5    -3   0.45936  -0.12760   0.02534  14.35981   0.08292  62.75063       78506.00      258750.39     1.78855     1.87406     2.56646     0.23058     0.00000   546.37158   546.37158
    14      648.66699      500.25629    -6     6    -4   0.15502   0.00688   0.00807  18.19144   0.05795  72.04330       14340.00       25268.39     1.22142     1.44981     5.06102     0.19121     0.00000   258.91776   258.91776
     8      668.66693      570.51654    -5     5    -3   0.09632  -0.03012   0.00519  15.64187   0.07079  68.09085       48169.00      216892.39     1.89800     2.72735   175.24387     0.30617     0.00000   426.81799   426.81799
     9      868.07928      257.33148    -5     3    -3   0.09936   0.19309   0.00718  10.82866   0.08280  87.48535       25054.00       50393.39     1.08869     1.85027     0.02292     0.19672     0.00000   649.00903   649.00903
    11      331.58609      270.36316    -4     6    -6  -0.49837  -0.03332   0.02254  15.68235   0.05785  86.21104       32497.00       87045.39     1.65302     1.93855   131.56834     0.21883     0.00000   868.37476   868.37476
    10      282.60837      288.47180    -3     5    -5  -0.42595  -0.03293   0.01892  12.97650   0.07065  85.10098       62276.00       91654.39     1.08471     1.50837     0.00744     0.19143     0.00000   668.99829   668.99829
    19      258.61331      619.59351    -3     7    -5  -0.06196  -0.37962   0.01062  19.09103   0.05964  65.98051       23408.00       46425.39     1.24185     1.70386     7.24891     0.24081     0.00000   129.69911   129.69911
    17      858.85938      567.53992    -7     5    -3   0.17082  -0.27615   0.01132  18.24943   0.05968  69.39047        8530.00       21623.39     1.08616     1.95262   179.96472     0.30048     0.00000   464.00964   464.00964
    31      474.98834      454.85623    -6     8    -6   0.04321   0.04888   0.00271  21.96851   0.04659  74.55543         485.00        2166.39     1.29703     2.01291     0.53069     0.09953     0.00000   699.03296   699.03296
    20      463.66888      498.18304    -5     7    -5   0.34728  -0.13818   0.01858  19.31511   0.05462  71.98134       15031.00       30554.39     1.17017     1.74373   177.63307     0.21923     0.00000   439.07843   439.07843
    22      721.84131      228.64709    -8     6    -6   0.06456   0.03358   0.00308  18.98027   0.04655  89.11392       25964.00       38568.39     1.17314     1.28894   178.83330     0.19868     0.00000   753.87354   753.87354
    15      129.36995       39.61809    -3     5    -7  -0.20745   0.22424   0.00989  13.61997   0.05948  99.85733       16100.00       34352.39     1.44685     1.58379    61.52827     0.22690     0.00000   859.18463   859.18463
    18      438.69971       20.97913    -6     6    -8   0.43006   0.29753   0.01956  17.13940   0.04649 102.16017       10232.00       19810.39     1.21661     1.50354   179.40742     0.21132     0.00000   722.15393   722.15393
    30     1012.69800      601.58746    -9     5    -3   0.01109  -0.14974   0.00382  21.60226   0.05069  68.95832        5715.00        9897.39     1.12066     1.35968   176.81027     0.15282     0.00000   261.99417   261.99417
    16      753.58606      232.69759    -7     5    -5  -0.32017   0.21276   0.01560  16.22801   0.05456  88.87367         987.00        3268.39     1.55840     1.75947   171.10638     0.10807     0.00000   475.08820   475.08820
    21      145.60902      355.19659    -3     7    -7  -0.05600  -0.03266   0.00254  18.13766   0.05245  81.32962        1370.00        3594.39     1.35336     1.49946   166.56938     0.11040     0.00000  1012.99866  1012.99866
    23      364.75168      259.68634    -5     7    -7  -0.04637  -0.07952   0.00333  18.42383   0.04893  86.88840        7925.00       20527.39     1.25194     1.89346   179.09154     0.17980     0.00000   145.92909   145.92909
    29      784.12421       52.58430   -10     6    -8  -0.02846  -0.11673   0.00377  21.07608   0.03835 100.15058        4306.00       12214.39     1.45548     1.82137    89.17654     0.22309     0.00000   823.14594   823.14594
    32      300.67804       93.01549    -6     8   -10  -0.06869  -0.00746   0.00276  21.53316   0.03834  97.34180        3014.00        6449.39     1.08103     1.53019     0.95954     0.16053     0.00000   454.99564   454.99564
    24      919.91016      273.32690    -9     5    -5   0.12348  -0.09342   0.00570  19.04898   0.04744  86.63050       10576.00       17254.39     1.20131     1.30134     2.06465     0.17604     0.00000   365.09415   365.09415
    26       27.57325      162.43471    -3     7    -9   0.31122   0.02682   0.01048  18.66321   0.04597  92.52908         873.00        2717.39     1.12936     1.86055   177.08534     0.10589     0.00000   300.99564   300.99564
    25      822.86200       31.40939    -9     5    -7   0.19184  -0.15251   0.00831  18.39847   0.04356 101.32901         920.00        3921.39     1.52416     1.84182   165.31216     0.14229     0.00000   784.08289   784.08289
    27      261.68039       78.65668    -5     7    -9  -0.07607  -0.04621   0.00323  18.84897   0.04354  98.10705        4106.00       12335.39     1.62070     1.80521    17.79770     0.19819     0.00000   920.15002   920.15002
    36      698.75671      226.31189    -9     7    -7   0.03663  -0.05452   0.00240  21.74944   0.04058  89.24931           0.00           0.00     0.00000     0.00000     0.00000     0.00000     0.00000     0.00000     0.00000
    28      454.66684       47.77779    -7     7    -9   0.00294   0.01207   0.00040  19.88925   0.04053 100.54009        4271.00       10528.39     1.38717     1.71541   167.91289     0.17794     0.00000    27.92366    27.92366
    33      971.55573       85.60032   -11     5    -7  -0.35022  -0.31478   0.01556  21.19125   0.03885  97.70676         712.00        2640.39     1.41244     1.50629    35.91663     0.11809     0.00000   971.96313   971.96313
latticeparameters=   0.54324   0.54484   0.54093  89.94934  90.19367  90.25814
dpsx, dpsy: 179.00000 168.38699
dd, xcent, ycent:      150.57201      540.60303      212.87601
pitch,yaw,roll:  -0.22645   0.61642   0.00000
dev1, dev2, pixdev:   0.01229   0.01206   0.25278
deviatoric strain in crystal reference u1 u2 u3 (*10^3)
   0.44307  -2.26031  -1.68367
  -2.26031   3.38564   0.43286
  -1.68367   0.43286  -3.81560
deviatoric strain in sample reference X Y Z (*10^3)
  -0.26603  -0.86271   0.48348
  -0.86271   4.63154   0.17118
   0.48348   0.17118  -4.35239
deviatoric principal strains (*10^3):   4.77990  -0.34976  -4.41703
deviatoric strain principal axes in sample reference:
  -0.16762   0.98580   0.00960
   0.97829   0.16513   0.12523
  -0.12187  -0.03039   0.99208
deviatoric stress in crystal reference u1 u2 u3 (MPa)
       45.89926     -359.43439     -267.73657
     -359.43439      345.15799       68.83375
     -267.73657       68.83375     -387.20786
deviatoric stress in sample reference X Y Z (MPa)
      -38.55640     -199.28946      -28.56878
     -199.28946      568.04987       20.79559
      -28.56878       20.79559     -525.64410
deviatoric principal stresses (MPa):      628.34930      -97.10372     -527.39624
deviatoric stress principal axes in sample reference:
       -0.28719        0.95756        0.02437
       -0.95631       -0.28808        0.04977
        0.05468       -0.00901        0.99846
total strain in sample reference X Y Z (*10^3)
   1.52480  -0.86271   0.48348
  -0.86271   6.42236   0.17118
   0.48348   0.17118  -2.56156
total principal strains (*10^3):   6.57072   1.44107  -2.62620
total strain principal axes in sample reference:
  -0.16762   0.98580   0.00960
   0.97829   0.16513   0.12523
  -0.12187  -0.03039   0.99208
total stress in crystal reference u1 u2 u3 (MPa)
      571.54333     -359.43439     -267.73657
     -359.43439      870.80206       68.83375
     -267.73657       68.83375      138.43622
total stress in sample reference X Y Z (MPa)
      487.08768     -199.28946      -28.56878
     -199.28946     1093.69397       20.79559
      -28.56878       20.79559        0.00000
total principal stresses (MPa):     1153.99341      428.54034       -1.75214
total stress principal axes in sample reference:
       -0.28719        0.95756        0.02437
       -0.95631       -0.28808        0.04977
        0.05468       -0.00901        0.99846
dilatational strain (*10^-3):        1.79083
hydrostatic stress (MPa):      526.92719
Von Mises stress (MPa):     1011.72662
equivalent strain (*10^-3):        5.32164
equivalent stress (MPa):     1011.72662
maximum resolved shear stress:       15.33213
coordinates of a, b, c in X, Y, Z
   0.44441  -0.20244   0.23851
   0.19253   0.50579   0.06497
  -0.24574   0.03226   0.48108
coordinates of a*, b*, c* in X, Y, Z
   1.50607  -0.67795   0.81475
   0.65607   1.70071   0.22109
  -0.83529   0.10642   1.64669
