\\vmware-host\Shared Folders\Desktop\SiHyperlaueFinal_shielded_results\results_00080.STR
Number of grains:       1
Grain no:       1   Grainlist file index:       1    Number of peaks:      33
no   x(exp)  y(exp)  h  k  l xdev  ydev  angdev  energy  dspace  twotheta  intens   integr  xwidth   ywidth  tilt  rfactor   pearson  xcentroid  ycentroid
     2      392.63290      871.96655    -2     4    -2  -0.32330  -0.10342   0.01873  12.44755   0.11105  53.29215       43101.00      147205.08     1.75383     2.06067   178.64368     0.20758     0.00000   746.65350   746.65350
     5      746.34125      951.24969    -3     3    -1  -0.35046   0.53754   0.02247  11.59327   0.12490  50.69746       41919.00      106914.08     1.65167     1.86287   126.34551     0.19447     0.00000  1026.77051  1026.77051
    13      991.67969      299.61694    -4     2    -2   0.12954  -0.06751   0.00533   8.25848   0.11084  85.25923       38861.00       67683.08     1.22680     1.57490   179.44604     0.22084     0.00000   282.88443   282.88443
     3      546.05304      225.14198    -3     3    -3   0.10718   0.18441   0.00785   8.45262   0.10446  89.19078       30398.00       47250.08     1.24267     1.24552   146.86079     0.18829     0.00000   992.01544   992.01544
     7     1026.45410      909.49377    -5     3    -1  -0.27576   0.26544   0.01387  14.49294   0.09197  55.43433         487.00        1434.08     1.16517     1.49486     2.03714     0.06724     0.00000    62.00176    62.00176
     6      925.00861      683.02136    -6     4    -2   0.09207   0.02101   0.00428  16.08244   0.07268  64.06240       41196.00      108561.08     1.66759     1.90738    54.33564     0.23548     0.00000   925.34875   925.34875
    36       61.81679      407.69461    -1     3    -3   0.23714   0.29280   0.01274   7.85972   0.12446  78.64912           0.00           0.00     0.00000     0.00000     0.00000     0.00000     0.00000     0.00000     0.00000
     4      426.63403      666.11194    -3     5    -3   0.45139  -0.12776   0.02491  14.35944   0.08292  62.75151       57440.00      194547.08     1.81350     1.87404    18.15657     0.22841     0.00000   546.37915   546.37915
    14      648.66766      500.21353    -6     6    -4   0.17131   0.02495   0.00894  18.19093   0.05795  72.04480       13615.00       24059.08     1.21117     1.45641     4.31964     0.18851     0.00000   258.92923   258.92923
     8      668.66699      570.49561    -5     5    -3   0.11488  -0.03515   0.00619  15.64139   0.07079  68.09237       38597.00      185764.08     1.90358     2.84679   175.49814     0.30622     0.00000   426.85303   426.85303
    11      868.11450      257.28293    -5     3    -3   0.08146   0.21066   0.00726  10.82842   0.08280  87.48727       20754.00       59855.08     1.79966     1.86663   112.79898     0.21595     0.00000   868.38239   868.38239
    10      331.59183      270.36032    -4     6    -6  -0.49694  -0.04147   0.02249  15.68214   0.05785  86.21174       54085.00       81105.08     1.08435     1.54426     0.13797     0.19320     0.00000   669.00476   669.00476
     9      282.61093      288.46173    -3     5    -5  -0.42140  -0.03187   0.01872  12.97634   0.07065  85.10154       22131.00       46629.08     1.08965     1.87235     0.03589     0.19208     0.00000   649.00952   649.00952
    19      258.61823      619.59430    -3     7    -5  -0.05435  -0.39031   0.01076  19.09069   0.05964  65.98094       19528.00       38536.08     1.23874     1.69111     6.91474     0.23124     0.00000   129.70915   129.70915
    17      858.88611      567.50836    -7     5    -3   0.16781  -0.27598   0.01121  18.24884   0.05968  69.39234        8139.00       20288.08     1.08919     1.94768     0.02467     0.30102     0.00000   464.00604   464.00604
    31      475.02664      454.85178    -6     8    -6   0.01764   0.03524   0.00142  21.96801   0.04659  74.55652         496.00        2121.08     1.29781     2.00635     4.47354     0.09856     0.00000   699.03827   699.03827
    20      463.67032      498.16409    -5     7    -5   0.35913  -0.13724   0.01919  19.31466   0.05462  71.98239       13812.00       28042.08     1.17154     1.72685   177.68698     0.21985     0.00000   439.07477   439.07477
    22      721.84521      228.63641    -8     6    -6   0.07348   0.01834   0.00333  18.97989   0.04655  89.11559       23390.00       34484.08     1.16454     1.27102   179.20364     0.19480     0.00000   753.87775   753.87775
    15      129.37880       39.62089    -3     5    -7  -0.21555   0.22101   0.01004  13.61993   0.05948  99.85736       13996.00       31869.08     1.48798     1.65258    45.93564     0.22531     0.00000   859.19836   859.19836
    18      438.70078       20.96650    -6     6    -8   0.43108   0.29579   0.01957  17.13924   0.04649 102.16106        9403.00       18712.08     1.23910     1.51225   179.07101     0.21174     0.00000   722.16003   722.16003
    30     1012.71881      601.57019    -9     5    -3   0.01966  -0.16789   0.00436  21.60155   0.05069  68.96038        5323.00        9283.08     1.12284     1.35811   177.34299     0.14899     0.00000   262.00085   262.00085
    16      753.59326      232.69316    -7     5    -5  -0.31369   0.19015   0.01504  16.22768   0.05456  88.87540         921.00        3271.08     1.55598     1.77967   172.22780     0.11251     0.00000   475.04578   475.04578
    21      145.60933      355.19009    -3     7    -7  -0.04861  -0.02950   0.00222  18.13750   0.05245  81.32979        1225.00        3386.08     1.35842     1.56480   170.81979     0.10764     0.00000  1013.00079  1013.00079
    23      364.75543      259.68414    -5     7    -7  -0.04283  -0.08967   0.00349  18.42357   0.04893  86.88919        7154.00       18829.08     1.25066     1.89632   179.85471     0.17764     0.00000   145.93143   145.93143
    29      784.14868       52.53466   -10     6    -8  -0.04360  -0.09572   0.00344  21.07577   0.03835 100.15231        3980.00       11555.08     1.47649     1.86171    86.10760     0.21535     0.00000   823.14606   823.14606
    33      300.68130       92.97648    -6     8   -10  -0.06926   0.02292   0.00288  21.53298   0.03834  97.34234         662.00        2526.08     1.35663     1.63447    22.73441     0.11787     0.00000   971.98450   971.98450
    25      919.93268      273.27942    -9     5    -5   0.12019  -0.07863   0.00537  19.04854   0.04744  86.63249         894.00        4034.08     1.75931     1.76796    37.33309     0.14133     0.00000   784.09717   784.09717
    26       27.57637      162.42177    -3     7    -9   0.31205   0.04312   0.01055  18.66317   0.04597  92.52890         829.00        2462.08     1.12232     1.79005   176.67764     0.09847     0.00000   301.01031   301.01031
    24      822.87421       31.37419    -9     5    -7   0.18927  -0.14762   0.00816  18.39820   0.04356 101.33079        9953.00       16461.08     1.19969     1.30664     3.17512     0.17940     0.00000   365.11124   365.11124
    27      261.68021       78.66402    -5     7    -9  -0.07383  -0.06035   0.00336  18.84884   0.04354  98.10747        3530.00       11448.08     1.66328     1.86579    16.64871     0.18482     0.00000   920.14801   920.14801
    35      698.75433      226.27554    -9     7    -7   0.05123  -0.04326   0.00268  21.74900   0.04058  89.25093           0.00           0.00     0.00000     0.00000     0.00000     0.00000     0.00000     0.00000     0.00000
    28      454.66415       47.76938    -7     7    -9   0.00867   0.00536   0.00039  19.88905   0.04053 100.54105        3922.00        9868.08     1.39827     1.72699   168.61057     0.17065     0.00000    27.93191    27.93191
    32      971.56329       85.56718   -11     5    -7  -0.34234  -0.31745   0.01538  21.19089   0.03885  97.70878        2887.00        6103.08     1.07997     1.50575   178.20135     0.15612     0.00000   454.99234   454.99234
latticeparameters=   0.54324   0.54485   0.54093  89.94922  90.19393  90.25871
dpsx, dpsy: 179.00000 168.38699
dd, xcent, ycent:      150.57201      540.60303      212.87601
pitch,yaw,roll:  -0.22645   0.61642   0.00000
dev1, dev2, pixdev:   0.01227   0.01208   0.25335
deviatoric strain in crystal reference u1 u2 u3 (*10^3)
   0.43782  -2.26534  -1.68591
  -2.26534   3.40283   0.43387
  -1.68591   0.43387  -3.82743
deviatoric strain in sample reference X Y Z (*10^3)
  -0.27135  -0.85928   0.48496
  -0.85928   4.64914   0.17314
   0.48496   0.17314  -4.36458
deviatoric principal strains (*10^3):   4.79576  -0.35301  -4.42953
deviatoric strain principal axes in sample reference:
  -0.16627   0.98603   0.00983
   0.97850   0.16375   0.12536
  -0.12200  -0.03047   0.99206
deviatoric stress in crystal reference u1 u2 u3 (MPa)
       45.37098     -360.23386     -268.09317
     -360.23386      346.91287       68.99462
     -268.09317       68.99462     -388.40479
deviatoric stress in sample reference X Y Z (MPa)
      -39.17342     -199.17387      -28.54385
     -199.17387      570.05127       20.97531
      -28.54385       20.97531     -526.99878
deviatoric principal stresses (MPa):      630.07819      -97.44998     -528.74908
deviatoric stress principal axes in sample reference:
       -0.28611        0.95788        0.02442
       -0.95665       -0.28701        0.04955
        0.05448       -0.00919        0.99847
total strain in sample reference X Y Z (*10^3)
   1.52410  -0.85928   0.48496
  -0.85928   6.44458   0.17314
   0.48496   0.17314  -2.56913
total principal strains (*10^3):   6.59121   1.44243  -2.63409
total strain principal axes in sample reference:
  -0.16627   0.98603   0.00983
   0.97850   0.16375   0.12536
  -0.12200  -0.03047   0.99206
total stress in crystal reference u1 u2 u3 (MPa)
      572.36975     -360.23386     -268.09317
     -360.23386      873.91162       68.99462
     -268.09317       68.99462      138.59399
total stress in sample reference X Y Z (MPa)
      487.82535     -199.17387      -28.54385
     -199.17387     1097.05005       20.97531
      -28.54385       20.97531        0.00000
total principal stresses (MPa):     1157.07690      429.54877       -1.75033
total stress principal axes in sample reference:
       -0.28611        0.95788        0.02442
       -0.95665       -0.28701        0.04955
        0.05448       -0.00919        0.99847
dilatational strain (*10^-3):        1.79544
hydrostatic stress (MPa):      528.29181
Von Mises stress (MPa):     1014.44489
equivalent strain (*10^-3):        5.33821
equivalent stress (MPa):     1014.44489
maximum resolved shear stress:       14.61544
coordinates of a, b, c in X, Y, Z
   0.44441  -0.20243   0.23852
   0.19251   0.50581   0.06498
  -0.24574   0.03225   0.48107
coordinates of a*, b*, c* in X, Y, Z
   1.50607  -0.67789   0.81479
   0.65600   1.70068   0.22110
  -0.83533   0.10639   1.64669
