\\vmware-host\Shared Folders\Desktop\SiHyperlaueFinal_shielded_results\results_00013.STR
Number of grains:       1
Grain no:       1   Grainlist file index:       1    Number of peaks:      33
no   x(exp)  y(exp)  h  k  l xdev  ydev  angdev  energy  dspace  twotheta  intens   integr  xwidth   ywidth  tilt  rfactor   pearson  xcentroid  ycentroid
     2      392.61795      871.97882    -2     4    -2  -0.33140  -0.10839   0.01921  12.44753   0.11105  53.29195       74301.00      261404.16     1.82610     2.05189   168.61884     0.21761     0.00000   746.59857   746.59857
     4      746.26501      951.27625    -3     3    -1  -0.30662   0.55140   0.02046  11.59369   0.12490  50.69566      108705.00      351004.16     1.78039     1.87124     0.81776     0.23278     0.00000   546.37122   546.37122
    13      991.65680      299.62192    -4     2    -2   0.10739  -0.01043   0.00410   8.25884   0.11084  85.25552       59764.00      103875.16     1.23684     1.56186   178.96371     0.23317     0.00000   282.86957   282.86957
     3      546.01813      225.14780    -3     3    -3   0.12944   0.20967   0.00915   8.45280   0.10446  89.18874       50434.00       74910.16     1.22804     1.23658   167.95467     0.18085     0.00000   991.97949   991.97949
     6     1026.41064      909.55310    -5     3    -1  -0.28486   0.26138   0.01421  14.49373   0.09197  55.43149       49265.00      133492.16     1.63167     1.92663   101.69764     0.25249     0.00000   925.33014   925.33014
     7      924.96448      683.08289    -6     4    -2   0.09415   0.00940   0.00437  16.08319   0.07268  64.05957        2548.00        4442.16     1.14590     1.40272     0.30477     0.09637     0.00000    62.03482    62.03482
    29       61.78734      407.68771    -1     3    -3   0.25149   0.28846   0.01310   7.85960   0.12446  78.64981        4872.00       13313.16     1.37266     1.52458     0.00000     0.24688     0.00000   823.13800   823.13800
     5      426.60480      666.13861    -3     5    -3   0.46061  -0.14178   0.02544  14.35953   0.08292  62.75091       54913.00      143424.16     1.66044     1.86296   106.36089     0.19716     0.00000  1026.73438  1026.73438
    15      648.66687      500.26672    -6     6    -4   0.14934   0.00457   0.00778  18.19144   0.05795  72.04281       17664.00       36764.16     1.43099     1.55217    73.99862     0.22944     0.00000   859.18707   859.18707
    10      668.66687      570.52710    -5     5    -3   0.09028  -0.03311   0.00489  15.64185   0.07079  68.09040       71157.00      103752.16     1.08412     1.48965   179.95308     0.19284     0.00000   669.00775   669.00775
     8      868.06055      257.35422    -5     3    -3   0.10271   0.19452   0.00730  10.82883   0.08280  87.48385       56764.00      251113.16     1.89624     2.69334   175.35542     0.30512     0.00000   426.80530   426.80530
    12      331.58435      270.36218    -4     6    -6  -0.49838  -0.03105   0.02253  15.68224   0.05785  86.21096       37549.00       80237.16     1.29509     1.74188   177.95221     0.24988     0.00000   331.84259   331.84259
     9      282.60663      288.46817    -3     5    -5  -0.42625  -0.03038   0.01893  12.97637   0.07065  85.10105       27564.00       54743.16     1.08990     1.84091   179.99387     0.19897     0.00000   649.00385   649.00385
    19      258.60764      619.58960    -3     7    -5  -0.06269  -0.38623   0.01080  19.09054   0.05964  65.98110       28513.00       56044.16     1.24397     1.69082     7.35433     0.24629     0.00000   129.68127   129.68127
    17      858.84698      567.55054    -7     5    -3   0.17112  -0.27128   0.01124  18.24961   0.05968  69.38955        9183.00       23577.16     1.08782     1.94799   179.98674     0.30189     0.00000   464.01419   464.01419
    32      474.98526      454.87747    -6     8    -6   0.04259   0.02920   0.00239  21.96832   0.04659  74.55534        3139.00        6606.16     1.07899     1.52306     0.41725     0.16322     0.00000   455.01279   455.01279
    20      463.66922      498.18903    -5     7    -5   0.34305  -0.14416   0.01840  19.31490   0.05462  71.98135       16013.00       33313.16     1.17361     1.76256   177.58765     0.22458     0.00000   439.08337   439.08337
    22      721.83832      228.64957    -8     6    -6   0.05894   0.05028   0.00309  18.98048   0.04655  89.11268       28549.00       43254.16     1.18143     1.30382   179.12601     0.20862     0.00000   753.85175   753.85175
    14      129.37906       39.61832    -3     5    -7  -0.21334   0.22723   0.01010  13.61990   0.05948  99.85716       15256.00       27345.16     1.23782     1.46870     5.80555     0.19563     0.00000   258.90201   258.90201
    18      438.70087       20.99685    -6     6    -8   0.42900   0.29595   0.01950  17.13950   0.04649 102.15917       11088.00       21235.16     1.20876     1.49582   179.24327     0.21499     0.00000   722.15857   722.15857
    31     1012.68640      601.61200    -9     5    -3   0.00252  -0.15473   0.00388  21.60261   0.05069  68.95714         568.00        2158.16     1.20650     1.81052     2.37600     0.10148     0.00000   699.01721   699.01721
    16      753.58044      232.70164    -7     5    -5  -0.32442   0.22908   0.01599  16.22821   0.05456  88.87236        1035.00        3600.16     1.62224     1.74619   164.33150     0.11983     0.00000   475.02524   475.02524
    21      145.60620      355.19553    -3     7    -7  -0.05737  -0.03906   0.00268  18.13735   0.05245  81.33007        1431.00        3669.16     1.31415     1.53203   173.43584     0.10763     0.00000  1013.01105  1013.01105
    23      364.75232      259.68710    -5     7    -7  -0.04871  -0.07735   0.00335  18.42373   0.04893  86.88821        8467.00       22225.16     1.25874     1.89859   179.09531     0.18599     0.00000   145.91003   145.91003
    30      784.12439       52.59920   -10     6    -8  -0.04139  -0.10157   0.00355  21.07643   0.03835 100.14878        6210.00       10631.16     1.11799     1.34396   176.87357     0.15801     0.00000   262.02167   262.02167
    34      300.68350       92.97076    -6     8   -10  -0.07306   0.04427   0.00326  21.53313   0.03834  97.34137         522.00        2764.24     1.23885     2.33164     5.66252     0.52932     0.00000   615.84363   615.84363
    25      919.91132      273.35172    -9     5    -5   0.10398  -0.09269   0.00502  19.04931   0.04744  86.62894        1015.00        4204.16     1.49619     1.81915   167.71271     0.14680     0.00000   784.10907   784.10907
    26       27.57214      162.42903    -3     7    -9   0.31178   0.02761   0.01050  18.66300   0.04597  92.52935         924.00        2723.16     1.12993     1.75360   176.03154     0.10711     0.00000   300.98462   300.98462
    24      822.78253       31.49769    -9     5    -7   0.25605  -0.20776   0.01116  18.39880   0.04356 101.32708       11692.00       19170.16     1.19838     1.30214     2.25594     0.18754     0.00000   365.11911   365.11911
    27      261.68073       78.66499    -5     7    -9  -0.07475  -0.04835   0.00322  18.84893   0.04354  98.10668        4552.00       13030.16     1.68189     1.72768   108.83930     0.19886     0.00000   920.15704   920.15704
    36      698.72638      226.40230    -9     7    -7   0.05920  -0.12665   0.00485  21.74966   0.04058  89.24813           0.00           0.00     0.00000     0.00000     0.00000     0.00000     0.00000     0.00000     0.00000
    28      454.66687       47.78131    -7     7    -9   0.00240   0.02399   0.00076  19.88936   0.04053 100.53912        4800.00       11844.16     1.39019     1.72019   168.98949     0.18515     0.00000    27.90655    27.90655
    33      971.53723       85.63994   -11     5    -7  -0.35676  -0.31800   0.01580  21.19169   0.03885  97.70473         734.00        2838.16     1.39624     1.56648    41.10411     0.12854     0.00000   971.97809   971.97809
latticeparameters=   0.54323   0.54486   0.54093  89.94829  90.19443  90.25707
dpsx, dpsy: 179.00000 168.38699
dd, xcent, ycent:      150.57201      540.60303      212.87601
pitch,yaw,roll:  -0.22645   0.61642   0.00000
dev1, dev2, pixdev:   0.01240   0.01215   0.25875
deviatoric strain in crystal reference u1 u2 u3 (*10^3)
   0.42314  -2.25101  -1.69028
  -2.25101   3.41698   0.44198
  -1.69028   0.44198  -3.82687
deviatoric strain in sample reference X Y Z (*10^3)
  -0.27030  -0.84518   0.48343
  -0.84518   4.65047   0.19061
   0.48343   0.19061  -4.36691
deviatoric principal strains (*10^3):   4.79288  -0.34720  -4.43242
deviatoric strain principal axes in sample reference:
  -0.16353   0.98647   0.01190
   0.97900   0.16078   0.12536
  -0.12175  -0.03215   0.99204
deviatoric stress in crystal reference u1 u2 u3 (MPa)
       43.88096     -357.95502     -268.78806
     -357.95502      348.35461       70.28410
     -268.78806       70.28410     -388.34485
deviatoric stress in sample reference X Y Z (MPa)
      -38.56334     -197.45947      -28.50408
     -197.45947      569.69086       23.52289
      -28.50408       23.52289     -527.23682
deviatoric principal stresses (MPa):      628.98322      -96.05673     -529.03577
deviatoric stress principal axes in sample reference:
       -0.28459        0.95828        0.02651
       -0.95717       -0.28558        0.04770
        0.05328       -0.01180        0.99851
total strain in sample reference X Y Z (*10^3)
   1.52595  -0.84518   0.48343
  -0.84518   6.44672   0.19061
   0.48343   0.19061  -2.57066
total principal strains (*10^3):   6.58913   1.44905  -2.63617
total strain principal axes in sample reference:
  -0.16353   0.98647   0.01190
   0.97900   0.16078   0.12536
  -0.12175  -0.03215   0.99204
total stress in crystal reference u1 u2 u3 (MPa)
      571.11774     -357.95502     -268.78806
     -357.95502      875.59143       70.28410
     -268.78806       70.28410      138.89194
total stress in sample reference X Y Z (MPa)
      488.67346     -197.45947      -28.50408
     -197.45947     1096.92761       23.52289
      -28.50408       23.52289        0.00000
total principal stresses (MPa):     1156.21997      431.18008       -1.79893
total stress principal axes in sample reference:
       -0.28459        0.95828        0.02651
       -0.95717       -0.28558        0.04770
        0.05328       -0.01180        0.99851
dilatational strain (*10^-3):        1.79626
hydrostatic stress (MPa):      528.53369
Von Mises stress (MPa):     1013.44995
equivalent strain (*10^-3):        5.33782
equivalent stress (MPa):     1013.44995
maximum resolved shear stress:       14.23701
coordinates of a, b, c in X, Y, Z
   0.44439  -0.20245   0.23849
   0.19255   0.50579   0.06499
  -0.24573   0.03226   0.48107
coordinates of a*, b*, c* in X, Y, Z
   1.50604  -0.67802   0.81474
   0.65607   1.70060   0.22109
  -0.83526   0.10638   1.64669
