\\vmware-host\Shared Folders\Desktop\SiHyperlaueFinal_shielded_results\results_00045.STR
Number of grains:       1
Grain no:       1   Grainlist file index:       1    Number of peaks:      33
no   x(exp)  y(exp)  h  k  l xdev  ydev  angdev  energy  dspace  twotheta  intens   integr  xwidth   ywidth  tilt  rfactor   pearson  xcentroid  ycentroid
     2      392.62408      871.98865    -2     4    -2  -0.32973  -0.10456   0.01910  12.44759   0.11105  53.29134       59739.00      205555.55     1.79216     2.06825   178.22807     0.21327     0.00000   746.62115   746.62115
     5      746.30676      951.29260    -3     3    -1  -0.33569   0.53187   0.02169  11.59355   0.12490  50.69588       49394.00      128111.55     1.66931     1.86916   102.24044     0.19741     0.00000  1026.74487  1026.74487
    13      991.66949      299.62027    -4     2    -2   0.11093  -0.04408   0.00443   8.25864   0.11084  85.25760       49350.00       85197.55     1.23042     1.55779   179.12308     0.22697     0.00000   282.87411   282.87411
     3      546.02832      225.15083    -3     3    -3   0.12162   0.18898   0.00840   8.45268   0.10446  89.18989       38843.00       58646.54     1.23484     1.23657   128.99406     0.18271     0.00000   992.00281   992.00281
     6     1026.42590      909.52814    -5     3    -1  -0.27912   0.26542   0.01401  14.49335   0.09197  55.43258       46563.00      123389.55     1.58768     1.96066   118.48043     0.24200     0.00000   925.33875   925.33875
     7      924.97540      683.04773    -6     4    -2   0.09952   0.02307   0.00462  16.08280   0.07268  64.06077        1080.00        2254.54     1.16469     1.38531   179.38925     0.07468     0.00000    61.99978    61.99978
    35       61.78182      407.69135    -1     3    -3   0.25884   0.29029   0.01336   7.85962   0.12446  78.64950           0.00           0.00     0.00000     0.00000     0.00000     0.00000     0.00000     0.00000     0.00000
     4      426.61765      666.13074    -3     5    -3   0.45411  -0.13144   0.02506  14.35947   0.08292  62.75077       80102.00      263655.53     1.79092     1.87371     2.29341     0.23050     0.00000   546.37244   546.37244
    14      648.66687      500.24579    -6     6    -4   0.15705   0.01203   0.00818  18.19114   0.05795  72.04362       14470.00       25818.54     1.22869     1.47125     4.96442     0.19080     0.00000   258.91760   258.91760
     8      668.66687      570.51605    -5     5    -3   0.09901  -0.03426   0.00535  15.64159   0.07079  68.09112       48178.00      220776.55     1.90132     2.76854   175.45625     0.30463     0.00000   426.82587   426.82587
     9      868.07544      257.32480    -5     3    -3   0.09891   0.19301   0.00717  10.82860   0.08280  87.48576       24874.00       50576.54     1.08943     1.85686   179.95566     0.19510     0.00000   649.01001   649.01001
    11      331.58658      270.36600    -4     6    -6  -0.50033  -0.04259   0.02265  15.68212   0.05785  86.21145       32371.00       87394.55     1.65885     1.94093   163.08119     0.23638     0.00000   868.38049   868.38049
    10      282.60934      288.47031    -3     5    -5  -0.42874  -0.03789   0.01906  12.97629   0.07065  85.10138       63511.00       93300.55     1.08422     1.50385   179.92796     0.19404     0.00000   668.99878   668.99878
    19      258.61105      619.58820    -3     7    -5  -0.06102  -0.37769   0.01056  19.09056   0.05964  65.98069       23763.00       46949.54     1.24658     1.69189     7.31452     0.24031     0.00000   129.69383   129.69383
    17      858.86023      567.52698    -7     5    -3   0.17131  -0.26912   0.01120  18.24919   0.05968  69.39080        8706.00       21685.54     1.08604     1.94706     0.00388     0.30109     0.00000   464.01135   464.01135
    31      474.97705      454.85724    -6     8    -6   0.05533   0.04214   0.00316  21.96809   0.04659  74.55577         513.00        2193.54     1.27764     2.02085     6.20103     0.10010     0.00000   699.03406   699.03406
    20      463.66953      498.16992    -5     7    -5   0.34767  -0.13042   0.01856  19.31471   0.05462  71.98166       15372.00       31178.54     1.17365     1.74053   177.90472     0.21840     0.00000   439.07297   439.07297
    22      721.84235      228.64284    -8     6    -6   0.06121   0.03182   0.00292  18.98014   0.04655  89.11430       26091.00       38855.54     1.17177     1.28628   177.24449     0.20107     0.00000   753.87000   753.87000
    15      129.37891       39.61880    -3     5    -7  -0.21959   0.21848   0.01010  13.61989   0.05948  99.85760       16019.00       34702.54     1.46562     1.59160    17.86352     0.22864     0.00000   859.19684   859.19684
    18      438.70004       20.97703    -6     6    -8   0.42658   0.29535   0.01940  17.13934   0.04649 102.16043       10222.00       20121.54     1.22851     1.51132   177.59309     0.21629     0.00000   722.16058   722.16058
    30     1012.69641      601.59149    -9     5    -3   0.01161  -0.16191   0.00413  21.60204   0.05069  68.95872        5617.00        9766.54     1.11635     1.35248   176.93643     0.15527     0.00000   262.02103   262.02103
    16      753.58771      232.69617    -7     5    -5  -0.32448   0.20808   0.01571  16.22791   0.05456  88.87405        1019.00        3311.54     1.56490     1.73451   170.48016     0.10949     0.00000   475.04449   475.04449
    21      145.60526      355.19351    -3     7    -7  -0.05558  -0.03573   0.00257  18.13734   0.05245  81.32999        1390.00        3611.54     1.33558     1.52976   170.78156     0.10854     0.00000  1013.00513  1013.00513
    23      364.74820      259.68658    -5     7    -7  -0.04418  -0.08614   0.00343  18.42358   0.04893  86.88881        7970.00       20853.54     1.25576     1.89565   179.12103     0.18449     0.00000   145.91515   145.91515
    29      784.13544       52.53674   -10     6    -8  -0.04667  -0.07357   0.00295  21.07609   0.03835 100.15087        4528.00       12651.54     1.44994     1.70906    30.12840     0.24352     0.00000   823.12189   823.12189
    33      300.67303       92.97185    -6     8   -10  -0.06619   0.03072   0.00284  21.53300   0.03834  97.34213         671.00        2671.54     1.41093     1.81896    15.12987     0.11484     0.00000   971.98181   971.98181
    25      919.90857      273.31900    -9     5    -5   0.11986  -0.09279   0.00556  19.04889   0.04744  86.63092         958.00        4129.54     1.58147     1.91940    81.44015     0.14773     0.00000   784.07727   784.07727
    26       27.57008      162.42065    -3     7    -9   0.31022   0.03486   0.01046  18.66301   0.04597  92.52941         880.00        2607.54     1.11424     1.78342   176.75629     0.10488     0.00000   301.01910   301.01910
    24      822.82092       31.43026    -9     5    -7   0.22448  -0.17754   0.00971  18.39850   0.04356 101.32928       10902.00       18052.54     1.20880     1.29389     2.25119     0.18275     0.00000   365.10464   365.10464
    27      261.67896       78.66241    -5     7    -9  -0.07732  -0.05731   0.00343  18.84883   0.04354  98.10737        3954.00       12243.54     1.61913     1.81860    18.42916     0.20215     0.00000   920.14819   920.14819
    36      698.73914      226.35333    -9     7    -7   0.05211  -0.10192   0.00402  21.74928   0.04058  89.24969           0.00           0.00     0.00000     0.00000     0.00000     0.00000     0.00000     0.00000     0.00000
    28      454.66492       47.75927    -7     7    -9   0.00192   0.02597   0.00082  19.88917   0.04053 100.54038        4218.00       10598.54     1.40427     1.73100   167.94330     0.17885     0.00000    27.90893    27.90893
    32      971.54468       85.58686   -11     5    -7  -0.35081  -0.30715   0.01544  21.19128   0.03885  97.70713        3037.00        6360.54     1.07846     1.49879     1.61736     0.15808     0.00000   455.01340   455.01340
latticeparameters=   0.54324   0.54486   0.54092  89.94993  90.19496  90.25833
dpsx, dpsy: 179.00000 168.38699
dd, xcent, ycent:      150.57201      540.60303      212.87601
pitch,yaw,roll:  -0.22645   0.61642   0.00000
dev1, dev2, pixdev:   0.01236   0.01213   0.25586
deviatoric strain in crystal reference u1 u2 u3 (*10^3)
   0.43326  -2.26205  -1.69486
  -2.26205   3.41891   0.42765
  -1.69486   0.42765  -3.83886
deviatoric strain in sample reference X Y Z (*10^3)
  -0.26418  -0.84953   0.48298
  -0.84953   4.65977   0.17402
   0.48298   0.17402  -4.38228
deviatoric principal strains (*10^3):   4.80314  -0.34348  -4.44635
deviatoric strain principal axes in sample reference:
  -0.16440   0.98634   0.01004
   0.97898   0.16191   0.12405
  -0.12073  -0.03022   0.99223
deviatoric stress in crystal reference u1 u2 u3 (MPa)
       44.91350     -359.71188     -269.51636
     -359.71188      348.55444       68.00471
     -269.51636       68.00471     -389.56049
deviatoric stress in sample reference X Y Z (MPa)
      -37.84495     -198.02798      -29.06668
     -198.02798      570.99963       21.00196
      -29.06668       21.00196     -529.24725
deviatoric principal stresses (MPa):      630.43719      -95.48428     -531.04541
deviatoric stress principal axes in sample reference:
       -0.28501        0.95821        0.02450
       -0.95694       -0.28591        0.05028
        0.05518       -0.00911        0.99843
total strain in sample reference X Y Z (*10^3)
   1.53893  -0.84953   0.48298
  -0.84953   6.46287   0.17402
   0.48298   0.17402  -2.57918
total principal strains (*10^3):   6.60624   1.45962  -2.64324
total strain principal axes in sample reference:
  -0.16440   0.98634   0.01004
   0.97898   0.16191   0.12405
  -0.12073  -0.03022   0.99223
total stress in crystal reference u1 u2 u3 (MPa)
      574.16071     -359.71188     -269.51636
     -359.71188      877.80170       68.00471
     -269.51636       68.00471      139.68674
total stress in sample reference X Y Z (MPa)
      491.40228     -198.02798      -29.06668
     -198.02798     1100.24683       21.00196
      -29.06668       21.00196        0.00000
total principal stresses (MPa):     1159.68445      433.76291       -1.79819
total stress principal axes in sample reference:
       -0.28501        0.95821        0.02450
       -0.95694       -0.28591        0.05028
        0.05518       -0.00911        0.99843
dilatational strain (*10^-3):        1.80310
hydrostatic stress (MPa):      530.54968
Von Mises stress (MPa):     1016.29651
equivalent strain (*10^-3):        5.35151
equivalent stress (MPa):     1016.29651
maximum resolved shear stress:       13.94164
coordinates of a, b, c in X, Y, Z
   0.44440  -0.20245   0.23850
   0.19254   0.50580   0.06499
  -0.24574   0.03224   0.48106
coordinates of a*, b*, c* in X, Y, Z
   1.50605  -0.67797   0.81477
   0.65604   1.70063   0.22114
  -0.83530   0.10638   1.64672
