\\vmware-host\Shared Folders\Desktop\SiHyperlaueFinal_shielded_results\results_00095.STR
Number of grains:       1
Grain no:       1   Grainlist file index:       1    Number of peaks:      32
no   x(exp)  y(exp)  h  k  l xdev  ydev  angdev  energy  dspace  twotheta  intens   integr  xwidth   ywidth  tilt  rfactor   pearson  xcentroid  ycentroid
     2      392.63684      871.97522    -2     4    -2  -0.30078  -0.12201   0.01753  12.44992   0.11103  53.29245       30702.00      101491.02     1.72054     2.05394   178.57249     0.20869     0.00000   746.67218   746.67218
     5      746.36572      951.26453    -3     3    -1  -0.37990   0.50508   0.02367  11.59473   0.12488  50.69809       34206.00       86885.02     1.59142     1.90887    83.11493     0.20709     0.00000  1026.77515  1026.77515
    14      991.68335      299.62054    -4     2    -2   0.14213  -0.08886   0.00602   8.25878   0.11083  85.26030       12352.00       28486.03     1.48991     1.66524    71.88378     0.21993     0.00000   859.21063   859.21063
     4      546.06464      225.14693    -3     3    -3   0.09366   0.19854   0.00784   8.45361   0.10445  89.18953       41389.00      143350.03     1.82209     1.87573    22.29368     0.22607     0.00000   546.37561   546.37561
     7     1026.45129      909.48682    -5     3    -1  -0.26682   0.26271   0.01348  14.49394   0.09196  55.43479       31595.00      152037.03     1.90650     2.87739   175.04915     0.31005     0.00000   426.87286   426.87286
     6      925.00568      683.00818    -6     4    -2   0.09571   0.02786   0.00445  16.08371   0.07267  64.06272       35447.00       92873.02     1.59025     1.96296   115.02052     0.24192     0.00000   925.34467   925.34467
     3      426.64246      666.11365    -3     5    -3   0.46088  -0.11546   0.02540  14.36209   0.08291  62.75074       25356.00       39185.02     1.23511     1.24024   162.78717     0.18250     0.00000   992.03180   992.03180
    12      648.66681      500.20163    -6     6    -4   0.16954   0.04868   0.00893  18.19330   0.05794  72.04410       30767.00       52996.02     1.21914     1.56366   179.51672     0.21343     0.00000   282.88934   282.88934
     8      668.66699      570.49316    -5     5    -3   0.11190  -0.02383   0.00598  15.64345   0.07078  68.09186       19477.00       41714.02     1.08825     1.88070     0.00000     0.18796     0.00000   649.00696   649.00696
    13      868.12671      257.27554    -5     3    -3   0.07265   0.20761   0.00701  10.82901   0.08279  87.48792       12093.00       21317.03     1.20954     1.46533     4.12881     0.18098     0.00000   258.92743   258.92743
     9      331.59537      270.35986    -4     6    -6  -0.48334  -0.00598   0.02182  15.68461   0.05784  86.20952       46004.00       69288.02     1.08461     1.54727   179.97681     0.19172     0.00000   669.00415   669.00415
    10      282.61386      288.46719    -3     5    -5  -0.40034  -0.00040   0.01774  12.97847   0.07064  85.09922       13559.00       39779.02     1.68135     1.99618   130.74805     0.19816     0.00000   868.35278   868.35278
    19      258.61829      619.58557    -3     7    -5  -0.01284  -0.36466   0.00959  19.09449   0.05963  65.97979       12311.00       24788.03     1.17301     1.71566   177.92130     0.21208     0.00000   439.07834   439.07834
    17      858.89728      567.50659    -7     5    -3   0.15490  -0.27697   0.01077  18.25041   0.05967  69.39247        8505.00       17065.03     1.23261     1.54022   177.46291     0.20780     0.00000   722.14966   722.14966
    31      475.04407      454.83002    -6     8    -6   0.00838   0.08103   0.00251  21.97156   0.04658  74.55506        2526.00        5559.02     1.08668     1.53537     0.86955     0.14748     0.00000   454.97983   454.97983
    20      463.67010      498.14206    -5     7    -5   0.36956  -0.09208   0.01953  19.31790   0.05461  71.98102        1174.00        3276.02     1.34007     1.57544   171.33517     0.10663     0.00000  1013.00415  1013.00415
    22      721.85895      228.63593    -8     6    -6   0.05569   0.02096   0.00258  18.98144   0.04655  89.11545        6703.00       17248.03     1.23672     1.89385   179.16747     0.17315     0.00000   145.94286   145.94286
    15      129.38313       39.62326    -3     5    -7  -0.19316   0.26482   0.01038  13.62179   0.05947  99.85484         885.00        3055.02     1.52922     1.80757   173.42506     0.10330     0.00000   475.05978   475.05978
    18      438.70001       20.95934    -6     6    -8   0.42861   0.32392   0.01990  17.14100   0.04649 102.15976       15667.00       30736.03     1.23286     1.68657     6.59035     0.21897     0.00000   129.72948   129.72948
    30     1012.69861      601.56158    -9     5    -3   0.05053  -0.16723   0.00487  21.60276   0.05069  68.96088         468.00        2160.02     1.32894     2.03578     8.99467     0.10253     0.00000   699.00482   699.00482
    16      753.59668      232.68994    -7     5    -5  -0.32028   0.19259   0.01534  16.22891   0.05456  88.87544        7597.00       18406.03     1.08897     1.93968     0.02930     0.30215     0.00000   464.00192   464.00192
    21      145.61569      355.20776    -3     7    -7  -0.00689  -0.01031   0.00042  18.14078   0.05244  81.32750       20153.00       29597.03     1.15778     1.26259   178.80219     0.18844     0.00000   753.88367   753.88367
    23      364.75659      259.68622    -5     7    -7  -0.03102  -0.05848   0.00236  18.42637   0.04893  86.88707        8932.00       15031.03     1.20057     1.31411     2.21888     0.17671     0.00000   365.10666   365.10666
    29      784.14398       52.52050   -10     6    -8  -0.03915  -0.09744   0.00340  21.07678   0.03835 100.15327        4925.00        8671.03     1.12146     1.33744   178.87187     0.14785     0.00000   261.99213   261.99213
    33      300.68286       93.00999    -6     8   -10  -0.05984   0.02537   0.00254  21.53582   0.03833  97.34015         610.00        2434.22     1.36405     1.79847    16.01220     0.11308     0.00000   971.97046   971.97046
    24      919.94867      273.26505    -9     5    -5   0.11226  -0.07824   0.00508  19.04942   0.04744  86.63334         814.00        3692.02     1.66132     1.87870    79.73594     0.13517     0.00000   784.06732   784.06732
    26       27.57606      162.42845    -3     7    -9   0.36517   0.08458   0.01247  18.66612   0.04597  92.52629        3152.00       10520.03     1.68237     1.87320    18.65039     0.18059     0.00000   920.14362   920.14362
    25      822.87921       31.37055    -9     5    -7   0.18754  -0.16639   0.00840  18.39891   0.04356 101.33212         799.00        2446.02     1.13265     1.80668   176.80370     0.09759     0.00000   301.05136   301.05136
    27      261.68094       78.65696    -5     7    -9  -0.06048  -0.01487   0.00238  18.85135   0.04354  98.10518        3639.00        9044.03     1.39299     1.71232   168.71239     0.16574     0.00000    27.91559    27.91559
    34      698.73572      226.36440    -9     7    -7   0.06538  -0.12776   0.00504  21.75088   0.04057  89.25065         522.00        2764.24     1.23885     2.33164     5.66252     0.52932     0.00000   615.84363   615.84363
    28      454.66510       47.76550    -7     7    -9   0.00481   0.03010   0.00096  19.89113   0.04052 100.53973        3507.00       10317.03     1.56124     1.80666    79.93016     0.19786     0.00000   823.13928   823.13928
    32      971.57214       85.57616   -11     5    -7  -0.33072  -0.35973   0.01588  21.19132   0.03885  97.71064         618.00        2513.02     1.33738     1.74405    13.79225     0.11688     0.00000   972.00781   972.00781
latticeparameters=   0.54329   0.54477   0.54095  89.94623  90.18911  90.25624
dpsx, dpsy: 179.00000 168.38699
dd, xcent, ycent:      150.57201      540.60303      212.87601
pitch,yaw,roll:  -0.22645   0.61642   0.00000
dev1, dev2, pixdev:   0.01229   0.01211   0.25128
deviatoric strain in crystal reference u1 u2 u3 (*10^3)
   0.54129  -2.24342  -1.64408
  -2.24342   3.25371   0.46015
  -1.64408   0.46015  -3.78241
deviatoric strain in sample reference X Y Z (*10^3)
  -0.23835  -0.92952   0.53240
  -0.92952   4.52141   0.15787
   0.53240   0.15787  -4.27046
deviatoric principal strains (*10^3):   4.69685  -0.33588  -4.34837
deviatoric strain principal axes in sample reference:
  -0.18443   0.98283   0.00635
   0.97347   0.18177   0.13902
  -0.13547  -0.03182   0.99027
deviatoric stress in crystal reference u1 u2 u3 (MPa)
       55.85526     -356.74841     -261.44086
     -356.74841      331.70834       73.17247
     -261.44086       73.17247     -383.86533
deviatoric stress in sample reference X Y Z (MPa)
      -37.35055     -205.63658      -21.71961
     -205.63658      556.18726       20.36503
      -21.71961       20.36503     -515.13843
deviatoric principal stresses (MPa):      621.06122     -101.11562     -516.24731
deviatoric stress principal axes in sample reference:
       -0.29873        0.95407        0.02281
       -0.95348       -0.29939        0.03529
        0.04050       -0.01121        0.99912
total strain in sample reference X Y Z (*10^3)
   1.51669  -0.92952   0.53240
  -0.92952   6.27645   0.15787
   0.53240   0.15787  -2.51543
total principal strains (*10^3):   6.45189   1.41915  -2.59333
total strain principal axes in sample reference:
  -0.18443   0.98283   0.00635
   0.97347   0.18177   0.13902
  -0.13547  -0.03182   0.99027
total stress in crystal reference u1 u2 u3 (MPa)
      570.99371     -356.74841     -261.44086
     -356.74841      846.84680       73.17247
     -261.44086       73.17247      131.27313
total stress in sample reference X Y Z (MPa)
      477.78790     -205.63658      -21.71961
     -205.63658     1071.32568       20.36503
      -21.71961       20.36503        0.00000
total principal stresses (MPa):     1136.19971      414.02283       -1.10887
total stress principal axes in sample reference:
       -0.29873        0.95407        0.02281
       -0.95348       -0.29939        0.03529
        0.04050       -0.01121        0.99912
dilatational strain (*10^-3):        1.75504
hydrostatic stress (MPa):      516.37122
Von Mises stress (MPa):      996.83112
equivalent strain (*10^-3):        5.23332
equivalent stress (MPa):      996.83112
maximum resolved shear stress:       24.05936
coordinates of a, b, c in X, Y, Z
   0.44452  -0.20240   0.23860
   0.19246   0.50581   0.06494
  -0.24575   0.03228   0.48115
coordinates of a*, b*, c* in X, Y, Z
   1.50617  -0.67772   0.81475
   0.65601   1.70121   0.22091
  -0.83543   0.10647   1.64675
