\\vmware-host\Shared Folders\Desktop\SiHyperlaueFinal_shielded_results\results_00021.STR
Number of grains:       1
Grain no:       1   Grainlist file index:       1    Number of peaks:      33
no   x(exp)  y(exp)  h  k  l xdev  ydev  angdev  energy  dspace  twotheta  intens   integr  xwidth   ywidth  tilt  rfactor   pearson  xcentroid  ycentroid
     2      392.60373      871.99036    -2     4    -2  -0.32097  -0.11419   0.01864  12.44782   0.11105  53.29173       75002.00      264755.53     1.82685     2.05260   167.59142     0.21914     0.00000   746.59521   746.59521
     4      746.26398      951.27301    -3     3    -1  -0.31136   0.54972   0.02067  11.59380   0.12490  50.69580      107890.00      349618.53     1.77947     1.87215     1.32367     0.23342     0.00000   546.36908   546.36908
    13      991.65430      299.61697    -4     2    -2   0.11626  -0.01894   0.00446   8.25877   0.11084  85.25631       59028.00      103392.52     1.25377     1.55556   179.06100     0.23458     0.00000   282.85941   282.85941
     3      546.01727      225.15013    -3     3    -3   0.12721   0.20098   0.00887   8.45280   0.10446  89.18915       49780.00       75547.52     1.24165     1.24725    13.72723     0.18670     0.00000   991.97058   991.97058
     6     1026.41125      909.54224    -5     3    -1  -0.28683   0.26160   0.01430  14.49369   0.09197  55.43188       50226.00      134481.53     1.61420     1.93539   102.99826     0.25331     0.00000   925.33350   925.33350
     7      924.96490      683.06744    -6     4    -2   0.09224   0.01617   0.00428  16.08317   0.07268  64.05997        2352.00        4137.52     1.15279     1.39371   177.92773     0.09510     0.00000    62.01982    62.01982
    30       61.78309      407.69220    -1     3    -3   0.25322   0.28847   0.01315   7.85971   0.12446  78.64958        6133.00       10495.52     1.12422     1.34698   176.80440     0.15391     0.00000   262.01144   262.01144
     5      426.60757      666.13477    -3     5    -3   0.45371  -0.13449   0.02505  14.35977   0.08292  62.75075       55295.00      144156.53     1.64669     1.87664   106.79416     0.19542     0.00000  1026.72961  1026.72961
    15      648.66675      500.26257    -6     6    -4   0.14565   0.00507   0.00758  18.19153   0.05795  72.04301       17489.00       36698.52     1.43947     1.56138    75.87096     0.22873     0.00000   859.18976   859.18976
     9      668.66681      570.52460    -5     5    -3   0.08623  -0.03404   0.00468  15.64194   0.07079  68.09058       27005.00       54137.52     1.08888     1.84386   179.98438     0.20158     0.00000   648.99792   648.99792
     8      868.05115      257.34024    -5     3    -3   0.11489   0.19627   0.00764  10.82876   0.08280  87.48461       56619.00      252438.53     1.89664     2.70906   175.33458     0.30505     0.00000   426.80429   426.80429
    12      331.58087      270.36713    -4     6    -6  -0.49912  -0.03737   0.02258  15.68234   0.05785  86.21105       37460.00       79909.52     1.30298     1.73466   177.98279     0.25121     0.00000   331.82794   331.82794
    10      282.60019      288.47119    -3     5    -5  -0.42398  -0.03363   0.01884  12.97647   0.07065  85.10107       71510.00      104473.52     1.08435     1.49177     0.02307     0.19387     0.00000   669.00024   669.00024
    19      258.60822      619.58807    -3     7    -5  -0.06593  -0.37881   0.01068  19.09091   0.05964  65.98081       27916.00       55593.52     1.24473     1.71648     6.73419     0.23999     0.00000   129.67697   129.67697
    17      858.85339      567.54791    -7     5    -3   0.16307  -0.27653   0.01105  18.24959   0.05968  69.38996        9126.00       23265.52     1.08348     1.94852     0.02434     0.30234     0.00000   464.02078   464.02078
    32      474.96301      454.85696    -6     8    -6   0.06071   0.04944   0.00351  21.96853   0.04659  74.55535        3209.00        6770.52     1.08243     1.51640   179.40691     0.16250     0.00000   455.00568   455.00568
    20      463.66815      498.18988    -5     7    -5   0.33994  -0.14438   0.01824  19.31511   0.05462  71.98131       16519.00       33785.52     1.17483     1.74325   177.75540     0.22485     0.00000   439.08560   439.08560
    22      721.83282      228.64781    -8     6    -6   0.06393   0.04210   0.00316  18.98040   0.04655  89.11332       28535.00       43258.52     1.17859     1.30560   178.94777     0.20941     0.00000   753.84961   753.84961
    14      129.36087       39.61843    -3     5    -7  -0.20210   0.22120   0.00969  13.61992   0.05948  99.85747       15246.00       27152.52     1.23514     1.45812     5.52498     0.19570     0.00000   258.90771   258.90771
    18      438.70148       20.97999    -6     6    -8   0.42464   0.30193   0.01943  17.13944   0.04649 102.15983       11093.00       21374.52     1.22219     1.49042   177.83977     0.21718     0.00000   722.16333   722.16333
    31     1012.68164      601.61298    -9     5    -3   0.00922  -0.16591   0.00421  21.60250   0.05069  68.95767         595.00        2233.52     1.26079     1.86552     6.27664     0.09702     0.00000   699.01050   699.01050
    16      753.57910      232.70026    -7     5    -5  -0.32297   0.21996   0.01581  16.22813   0.05456  88.87303        1078.00        3518.52     1.53452     1.70666     8.89713     0.11997     0.00000   475.03864   475.03864
    21      145.60405      355.18939    -3     7    -7  -0.05864  -0.03010   0.00262  18.13756   0.05245  81.32992        1434.00        3602.52     1.31775     1.48973   171.24428     0.10656     0.00000  1012.99573  1012.99573
    23      364.75043      259.68771    -5     7    -7  -0.05102  -0.08012   0.00348  18.42383   0.04893  86.88835        8296.00       21887.52     1.26365     1.89905   179.71875     0.18442     0.00000   145.91267   145.91267
    29      784.12073       52.58120   -10     6    -8  -0.03417  -0.10004   0.00338  21.07624   0.03835 100.14977        4792.00       13211.52     1.45981     1.66223    33.03546     0.24405     0.00000   823.15057   823.15057
    33      300.68185       93.00026    -6     8   -10  -0.07650   0.00870   0.00309  21.53314   0.03834  97.34173         693.00        2724.52     1.42273     1.71487    19.28176     0.12054     0.00000   971.97894   971.97894
    24      919.89795      273.34735    -9     5    -5   0.12155  -0.10115   0.00575  19.04916   0.04744  86.62971       11840.00       19628.52     1.20316     1.29634     3.90055     0.19161     0.00000   365.09805   365.09805
    26       27.56768      162.42284    -3     7    -9   0.31045   0.03284   0.01047  18.66311   0.04597  92.52940         918.00        2881.52     1.13904     1.79833   176.79622     0.11219     0.00000   300.98157   300.98157
    25      822.82922       31.44483    -9     5    -7   0.21461  -0.17297   0.00933  18.39861   0.04356 101.32814        1025.00        4353.52     1.53324     1.83573   161.69894     0.15451     0.00000   784.12506   784.12506
    27      261.68048       78.66613    -5     7    -9  -0.07998  -0.05553   0.00349  18.84895   0.04354  98.10703        4518.00       13273.52     1.60376     1.78150    19.32283     0.20723     0.00000   920.17102   920.17102
    36      698.73364      226.37032    -9     7    -7   0.05101  -0.10419   0.00405  21.74958   0.04058  89.24874           0.00           0.00     0.00000     0.00000     0.00000     0.00000     0.00000     0.00000     0.00000
    28      454.66318       47.76713    -7     7    -9   0.00253   0.02803   0.00088  19.88930   0.04053 100.53975        4566.00       11360.52     1.40071     1.72629   168.66496     0.18282     0.00000    27.90612    27.90612
    34      971.54468       85.61973   -11     5    -7  -0.35402  -0.31674   0.01570  21.19145   0.03885  97.70580         522.00        2764.24     1.23885     2.33164     5.66252     0.52932     0.00000   615.84363   615.84363
latticeparameters=   0.54324   0.54485   0.54093  89.94902  90.19386  90.25758
dpsx, dpsy: 179.00000 168.38699
dd, xcent, ycent:      150.57201      540.60303      212.87601
pitch,yaw,roll:  -0.22645   0.61642   0.00000
dev1, dev2, pixdev:   0.01228   0.01203   0.25673
deviatoric strain in crystal reference u1 u2 u3 (*10^3)
   0.43750  -2.25543  -1.68535
  -2.25543   3.38939   0.43565
  -1.68535   0.43565  -3.81377
deviatoric strain in sample reference X Y Z (*10^3)
  -0.26574  -0.85817   0.48197
  -0.85817   4.63102   0.17723
   0.48197   0.17723  -4.35216
deviatoric principal strains (*10^3):   4.77803  -0.34815  -4.41677
deviatoric strain principal axes in sample reference:
  -0.16677   0.98594   0.01034
   0.97847   0.16419   0.12505
  -0.12159  -0.03097   0.99210
deviatoric stress in crystal reference u1 u2 u3 (MPa)
       45.33227     -358.65897     -268.00360
     -358.65897      345.54016       69.27738
     -268.00360       69.27738     -387.02209
deviatoric stress in sample reference X Y Z (MPa)
      -38.34839     -198.73582      -28.66117
     -198.73582      567.82898       21.67739
      -28.66117       21.67739     -525.63031
deviatoric principal stresses (MPa):      627.90277      -96.64327     -527.40918
deviatoric stress principal axes in sample reference:
       -0.28675        0.95768        0.02512
       -0.95646       -0.28767        0.04937
        0.05450       -0.00987        0.99846
total strain in sample reference X Y Z (*10^3)
   1.52505  -0.85817   0.48197
  -0.85817   6.42180   0.17723
   0.48197   0.17723  -2.56138
total principal strains (*10^3):   6.56881   1.44264  -2.62598
total strain principal axes in sample reference:
  -0.16677   0.98594   0.01034
   0.97847   0.16419   0.12505
  -0.12159  -0.03097   0.99210
total stress in crystal reference u1 u2 u3 (MPa)
      570.96259     -358.65897     -268.00360
     -358.65897      871.17047       69.27738
     -268.00360       69.27738      138.60820
total stress in sample reference X Y Z (MPa)
      487.28192     -198.73582      -28.66117
     -198.73582     1093.45935       21.67739
      -28.66117       21.67739        0.00000
total principal stresses (MPa):     1153.53308      428.98700       -1.77885
total stress principal axes in sample reference:
       -0.28675        0.95768        0.02512
       -0.95646       -0.28767        0.04937
        0.05450       -0.00987        0.99846
dilatational strain (*10^-3):        1.79078
hydrostatic stress (MPa):      526.91376
Von Mises stress (MPa):     1011.25464
equivalent strain (*10^-3):        5.32031
equivalent stress (MPa):     1011.25464
maximum resolved shear stress:       15.23699
coordinates of a, b, c in X, Y, Z
   0.44441  -0.20245   0.23850
   0.19254   0.50579   0.06498
  -0.24573   0.03226   0.48108
coordinates of a*, b*, c* in X, Y, Z
   1.50606  -0.67799   0.81474
   0.65609   1.70068   0.22107
  -0.83526   0.10643   1.64669
