\\vmware-host\Shared Folders\Desktop\SiHyperlaueFinal_shielded_results\results_00058.STR
Number of grains:       1
Grain no:       1   Grainlist file index:       1    Number of peaks:      33
no   x(exp)  y(exp)  h  k  l xdev  ydev  angdev  energy  dspace  twotheta  intens   integr  xwidth   ywidth  tilt  rfactor   pearson  xcentroid  ycentroid
     2      392.62671      871.97913    -2     4    -2  -0.32351  -0.11400   0.01878  12.44815   0.11104  53.29210       58816.00      204683.70     1.78444     2.07014   178.42924     0.21073     0.00000   746.62823   746.62823
     5      746.31476      951.26569    -3     3    -1  -0.34334   0.53846   0.02213  11.59387   0.12490  50.69666       48917.00      127098.70     1.62189     1.92940   100.60283     0.18767     0.00000  1026.74939  1026.74939
    13      991.67010      299.61420    -4     2    -2   0.12254  -0.04312   0.00484   8.25869   0.11084  85.25793       49108.00       85022.70     1.22868     1.56421   179.25487     0.22732     0.00000   282.87357   282.87357
     3      546.03571      225.14194    -3     3    -3   0.11687   0.19880   0.00850   8.45290   0.10446  89.18983       37974.00       58161.71     1.23762     1.24776    13.84909     0.18797     0.00000   992.01398   992.01398
     6     1026.42749      909.51691    -5     3    -1  -0.27585   0.26682   0.01389  14.49359   0.09197  55.43302       46038.00      122772.70     1.62116     1.94338   160.20006     0.25849     0.00000   925.34375   925.34375
     7      924.99121      683.03906    -6     4    -2   0.08757   0.02529   0.00407  16.08312   0.07268  64.06112        1050.00        2347.71     1.14556     1.48355   179.51945     0.08149     0.00000    62.02152    62.02152
    34       61.83061      407.68793    -1     3    -3   0.22752   0.29681   0.01253   7.85998   0.12446  78.64925         522.00        2764.24     1.23885     2.33164     5.66252     0.52932     0.00000   615.84363   615.84363
     4      426.62308      666.12860    -3     5    -3   0.45529  -0.13554   0.02514  14.36013   0.08292  62.75107       79070.00      261314.70     1.79828     1.87344     9.92833     0.23085     0.00000   546.37976   546.37976
    14      648.66724      500.23566    -6     6    -4   0.15877   0.01980   0.00828  18.19173   0.05795  72.04377       14455.00       25370.71     1.21473     1.46327     4.18626     0.18693     0.00000   258.92035   258.92035
     8      668.66687      570.50574    -5     5    -3   0.10084  -0.02800   0.00542  15.64210   0.07079  68.09135       47789.00      220965.70     1.90366     2.79152   175.14928     0.30560     0.00000   426.83041   426.83041
     9      868.07886      257.32373    -5     3    -3   0.10282   0.18948   0.00717  10.82871   0.08280  87.48605       24427.00       50350.71     1.08986     1.86122   179.94418     0.19658     0.00000   649.00635   649.00635
    11      331.58826      270.35718    -4     6    -6  -0.49602  -0.02933   0.02242  15.68270   0.05785  86.21117       31717.00       87406.70     1.77333     1.82438   151.22600     0.22830     0.00000   868.38831   868.38831
    10      282.61008      288.46680    -3     5    -5  -0.42201  -0.02955   0.01874  12.97680   0.07064  85.10108       62296.00       92294.70     1.08441     1.52426     0.06317     0.19349     0.00000   669.00146   669.00146
    19      258.61612      619.59064    -3     7    -5  -0.05350  -0.38464   0.01060  19.09151   0.05964  65.98085       23845.00       46833.71     1.24734     1.68589     7.56584     0.24088     0.00000   129.69910   129.69910
    17      858.87280      567.52765    -7     5    -3   0.16212  -0.27457   0.01098  18.24958   0.05968  69.39108        8694.00       21817.71     1.08772     1.94932     0.13017     0.29917     0.00000   464.01422   464.01422
    31      474.99597      454.87274    -6     8    -6   0.04074   0.02707   0.00228  21.96897   0.04659  74.55575         516.00        2042.71     1.29586     1.92192     5.50453     0.09356     0.00000   699.00665   699.00665
    20      463.66891      498.17792    -5     7    -5   0.35306  -0.13886   0.01888  19.31552   0.05462  71.98168       15151.00       30708.71     1.17243     1.73293   177.76149     0.22134     0.00000   439.08908   439.08908
    22      721.83905      228.64059    -8     6    -6   0.06826   0.03153   0.00321  18.98046   0.04655  89.11446       26115.00       38860.71     1.16693     1.28202   178.86247     0.20152     0.00000   753.87164   753.87164
    15      129.38300       39.61697    -3     5    -7  -0.21807   0.22709   0.01023  13.62026   0.05948  99.85724       15660.00       34034.71     1.46472     1.60576    64.37005     0.22474     0.00000   859.19354   859.19354
    18      438.70105       20.97151    -6     6    -8   0.42728   0.30114   0.01951  17.13966   0.04649 102.16041       10382.00       20256.71     1.22910     1.50263   177.54474     0.21621     0.00000   722.15051   722.15051
    30     1012.69055      601.58551    -9     5    -3   0.02550  -0.15993   0.00424  21.60233   0.05069  68.95899        5654.00        9873.71     1.11492     1.33394   178.62862     0.15874     0.00000   262.00943   262.00943
    16      753.58923      232.69398    -7     5    -5  -0.32169   0.20719   0.01559  16.22815   0.05456  88.87425         974.00        3414.71     1.61382     1.77317   166.40356     0.11440     0.00000   475.05615   475.05615
    21      145.61269      355.19537    -3     7    -7  -0.04996  -0.03303   0.00232  18.13812   0.05245  81.32969        1345.00        3586.71     1.31493     1.55586   172.50822     0.11080     0.00000  1013.00946  1013.00946
    23      364.75302      259.68314    -5     7    -7  -0.04388  -0.07865   0.00323  18.42422   0.04893  86.88855        7901.00       20630.71     1.24712     1.90247   179.26266     0.17929     0.00000   145.92703   145.92703
    29      784.09662       52.58689   -10     6    -8  -0.00074  -0.13135   0.00401  21.07619   0.03835 100.15132        4371.00       12530.71     1.47047     1.84255    83.85682     0.22030     0.00000   823.12097   823.12097
    33      300.68594       92.99240    -6     8   -10  -0.07526   0.01465   0.00306  21.53358   0.03834  97.34186         710.00        2760.71     1.33495     1.66711    17.04054     0.12709     0.00000   971.99579   971.99579
    25      919.92249      273.29980    -9     5    -5   0.11511  -0.07857   0.00519  19.04904   0.04744  86.63124        1020.00        4195.71     1.47706     1.81834   168.04407     0.15004     0.00000   784.08063   784.08063
    26       27.56823      162.43539    -3     7    -9   0.32399   0.02828   0.01091  18.66367   0.04597  92.52897         879.00        2540.71     1.15643     1.81659   177.39487     0.09431     0.00000   301.00821   301.00821
    24      822.86932       31.38355    -9     5    -7   0.18502  -0.14012   0.00791  18.39854   0.04356 101.32981       10586.00       17591.71     1.20612     1.30401     0.63023     0.18323     0.00000   365.10333   365.10333
    27      261.67908       78.66227    -5     7    -9  -0.07327  -0.05215   0.00322  18.84935   0.04354  98.10708        3957.00       12430.71     1.64169     1.84244    15.40085     0.19468     0.00000   920.15582   920.15582
    36      698.74109      226.35229    -9     7    -7   0.05357  -0.10300   0.00408  21.74967   0.04058  89.24983           0.00           0.00     0.00000     0.00000     0.00000     0.00000     0.00000     0.00000     0.00000
    28      454.66571       47.76366    -7     7    -9   0.00307   0.02208   0.00070  19.88956   0.04053 100.54035        4302.00       10801.71     1.40617     1.71798   169.16968     0.17958     0.00000    27.91586    27.91586
    32      971.57959       85.58371   -11     5    -7  -0.37003  -0.31441   0.01611  21.19126   0.03885  97.70768        2945.00        6330.71     1.07810     1.51140     1.40020     0.16162     0.00000   454.99133   454.99133
latticeparameters=   0.54325   0.54483   0.54093  89.94887  90.19270  90.25723
dpsx, dpsy: 179.00000 168.38699
dd, xcent, ycent:      150.57201      540.60303      212.87601
pitch,yaw,roll:  -0.22645   0.61642   0.00000
dev1, dev2, pixdev:   0.01231   0.01210   0.25538
deviatoric strain in crystal reference u1 u2 u3 (*10^3)
   0.45960  -2.25236  -1.67524
  -2.25236   3.36646   0.43696
  -1.67524   0.43696  -3.81302
deviatoric strain in sample reference X Y Z (*10^3)
  -0.25976  -0.86914   0.49518
  -0.86914   4.61193   0.16996
   0.49518   0.16996  -4.33912
deviatoric principal strains (*10^3):   4.76311  -0.34333  -4.40673
deviatoric strain principal axes in sample reference:
  -0.16962   0.98547   0.00917
   0.97757   0.16706   0.12825
  -0.12486  -0.03072   0.99170
deviatoric stress in crystal reference u1 u2 u3 (MPa)
       47.57552     -358.17075     -266.39630
     -358.17075      343.20367       69.48550
     -266.39630       69.48550     -386.94946
deviatoric stress in sample reference X Y Z (MPa)
      -38.08156     -199.65353      -26.94132
     -199.65353      565.73553       20.87573
      -26.94132       20.87573     -523.82428
deviatoric principal stresses (MPa):      626.45026      -97.21095     -525.40955
deviatoric stress principal axes in sample reference:
       -0.28855        0.95716        0.02413
       -0.95609       -0.28939        0.04622
        0.05122       -0.00973        0.99864
total strain in sample reference X Y Z (*10^3)
   1.52487  -0.86914   0.49518
  -0.86914   6.39656   0.16996
   0.49518   0.16996  -2.55450
total principal strains (*10^3):   6.54774   1.44130  -2.62210
total strain principal axes in sample reference:
  -0.16962   0.98547   0.00917
   0.97757   0.16706   0.12825
  -0.12486  -0.03072   0.99170
total stress in crystal reference u1 u2 u3 (MPa)
      571.39978     -358.17075     -266.39630
     -358.17075      867.02789       69.48550
     -266.39630       69.48550      136.87480
total stress in sample reference X Y Z (MPa)
      485.74271     -199.65353      -26.94132
     -199.65353     1089.55981       20.87573
      -26.94132       20.87573        0.00000
total principal stresses (MPa):     1150.27441      426.61334       -1.58531
total stress principal axes in sample reference:
       -0.28855        0.95716        0.02413
       -0.95609       -0.28939        0.04622
        0.05122       -0.00973        0.99864
dilatational strain (*10^-3):        1.78463
hydrostatic stress (MPa):      525.10083
Von Mises stress (MPa):     1008.41974
equivalent strain (*10^-3):        5.30562
equivalent stress (MPa):     1008.41974
maximum resolved shear stress:       16.53206
coordinates of a, b, c in X, Y, Z
   0.44443  -0.20243   0.23853
   0.19252   0.50580   0.06497
  -0.24574   0.03226   0.48109
coordinates of a*, b*, c* in X, Y, Z
   1.50608  -0.67791   0.81475
   0.65604   1.70079   0.22105
  -0.83532   0.10644   1.64670
