\\vmware-host\Shared Folders\Desktop\SiHyperlaueFinal_shielded_results\results_00084.STR
Number of grains:       1
Grain no:       1   Grainlist file index:       1    Number of peaks:      33
no   x(exp)  y(exp)  h  k  l xdev  ydev  angdev  energy  dspace  twotheta  intens   integr  xwidth   ywidth  tilt  rfactor   pearson  xcentroid  ycentroid
     2      392.63431      871.96887    -2     4    -2  -0.32289  -0.11110   0.01874  12.44729   0.11105  53.29237       42260.00      143049.28     1.74560     2.06064   178.64246     0.20900     0.00000   746.65625   746.65625
     5      746.34784      951.25336    -3     3    -1  -0.35301   0.52906   0.02252  11.59309   0.12490  50.69767       40753.00      104300.27     1.69086     1.81878    79.01905     0.21115     0.00000  1026.77161  1026.77161
    13      991.68018      299.61761    -4     2    -2   0.12101  -0.06442   0.00499   8.25852   0.11084  85.25899       38692.00       66638.27     1.22319     1.55850   179.29581     0.22078     0.00000   282.88391   282.88391
     3      546.05212      225.13950    -3     3    -3   0.10798   0.19063   0.00803   8.45262   0.10446  89.19053       30010.00       46156.28     1.23829     1.24084    40.76405     0.18480     0.00000   992.03186   992.03186
     7     1026.45239      909.48749    -5     3    -1  -0.27330   0.26716   0.01379  14.49282   0.09197  55.43452         467.00        1494.28     1.18106     1.53549   179.28069     0.07271     0.00000    62.00707    62.00707
     6      925.01477      683.02631    -6     4    -2   0.08599   0.01374   0.00399  16.08235   0.07268  64.06252       40342.00      106690.27     1.66908     1.92158   143.50372     0.23548     0.00000   925.34979   925.34979
    36       61.81949      407.68976    -1     3    -3   0.23514   0.29808   0.01278   7.85965   0.12447  78.64909           0.00           0.00     0.00000     0.00000     0.00000     0.00000     0.00000     0.00000     0.00000
     4      426.63452      666.11035    -3     5    -3   0.45274  -0.13015   0.02499  14.35921   0.08292  62.75171       56472.00      190776.28     1.81226     1.87361    18.67497     0.22899     0.00000   546.38293   546.38293
    14      648.66718      500.21051    -6     6    -4   0.17310   0.02686   0.00904  18.19080   0.05795  72.04487       13366.00       23415.28     1.20961     1.45755     4.12783     0.18372     0.00000   258.92480   258.92480
     8      668.66705      570.49341    -5     5    -3   0.11658  -0.03491   0.00627  15.64125   0.07079  68.09249       38111.00      183352.28     1.90404     2.84739   175.32568     0.30763     0.00000   426.85303   426.85303
    11      868.11676      257.28156    -5     3    -3   0.07405   0.21653   0.00728  10.82846   0.08280  87.48699       20265.00       58544.28     1.67066     1.99968   126.56293     0.21076     0.00000   868.37854   868.37854
    10      331.59326      270.35934    -4     6    -6  -0.49712  -0.03839   0.02249  15.68208   0.05785  86.21160       53001.00       79711.27     1.08476     1.54508     0.04247     0.19474     0.00000   669.00354   669.00354
     9      282.61234      288.46960    -3     5    -5  -0.42147  -0.03801   0.01874  12.97627   0.07065  85.10143       21491.00       45657.28     1.09064     1.87497     0.01982     0.19210     0.00000   649.00256   649.00256
    19      258.61826      619.59222    -3     7    -5  -0.05376  -0.39138   0.01078  19.09040   0.05964  65.98110       19081.00       37366.28     1.23834     1.68385     6.83873     0.22900     0.00000   129.70802   129.70802
    17      858.88739      567.50549    -7     5    -3   0.16632  -0.27418   0.01112  18.24876   0.05968  69.39239        8100.00       19928.28     1.08650     1.94357     0.03910     0.30412     0.00000   464.01520   464.01520
    31      475.03159      454.83060    -6     8    -6   0.01414   0.05523   0.00184  21.96782   0.04659  74.55659         469.00        2126.28     1.30990     2.02723     7.53799     0.10041     0.00000   699.00708   699.00708
    20      463.66895      498.15109    -5     7    -5   0.36209  -0.12611   0.01928  19.31446   0.05462  71.98250       13456.00       27425.28     1.17519     1.72136   177.71193     0.22166     0.00000   439.08685   439.08685
    22      721.85333      228.63570    -8     6    -6   0.06295   0.02359   0.00291  18.97993   0.04655  89.11529       23182.00       33884.28     1.16131     1.26884   179.12099     0.19182     0.00000   753.88171   753.88171
    15      129.38428       39.61960    -3     5    -7  -0.21732   0.23115   0.01029  13.61995   0.05948  99.85687       13508.00       30769.28     1.48928     1.65813    38.12162     0.22073     0.00000   859.20618   859.20618
    18      438.70200       20.96303    -6     6    -8   0.42979   0.30888   0.01971  17.13932   0.04649 102.16047        9144.00       18634.28     1.23464     1.52919   178.45081     0.21744     0.00000   722.16125   722.16125
    30     1012.70618      601.57361    -9     5    -3   0.02929  -0.17285   0.00461  21.60151   0.05069  68.96042        5191.00        9111.28     1.11878     1.34553   177.17065     0.15049     0.00000   262.00964   262.00964
    16      753.59430      232.69295    -7     5    -5  -0.31767   0.19496   0.01527  16.22772   0.05456  88.87510         955.00        3242.28     1.51437     1.80257     8.06466     0.10758     0.00000   475.05258   475.05258
    21      145.61273      355.19540    -3     7    -7  -0.05086  -0.03401   0.00237  18.13737   0.05245  81.32974        1231.00        3346.28     1.35244     1.53879   168.76086     0.10766     0.00000  1013.01404  1013.01404
    23      364.75739      259.68454    -5     7    -7  -0.04365  -0.08769   0.00346  18.42351   0.04893  86.88904        7172.00       18807.28     1.24391     1.90265   179.22768     0.17720     0.00000   145.92323   145.92323
    29      784.11127       52.57714   -10     6    -8  -0.01292  -0.12797   0.00396  21.07593   0.03835 100.15170        3786.00       11179.28     1.48782     1.89937    82.38086     0.20340     0.00000   823.13507   823.13507
    32      300.68719       93.01802    -6     8   -10  -0.07352  -0.01174   0.00296  21.53301   0.03834  97.34192        2698.00        5956.28     1.08535     1.50555     2.20555     0.15843     0.00000   455.00800   455.00800
    24      919.90588      273.30200    -9     5    -5   0.14069  -0.09694   0.00636  19.04862   0.04744  86.63222        9895.00       16328.28     1.19435     1.30981     1.48684     0.17917     0.00000   365.10239   365.10239
    26       27.57627      162.44775    -3     7    -9   0.31552   0.02262   0.01062  18.66314   0.04597  92.52860         812.00        2623.28     1.14459     1.84205   179.47903     0.10304     0.00000   301.00027   301.00027
    25      822.88330       31.35940    -9     5    -7   0.17184  -0.12159   0.00723  18.39835   0.04356 101.33014         922.00        3768.28     1.49177     1.82135   167.24731     0.13877     0.00000   784.10010   784.10010
    27      261.67770       78.66451    -5     7    -9  -0.06927  -0.05350   0.00310  18.84887   0.04354  98.10703        3670.00       11375.28     1.62090     1.83189    13.22214     0.18899     0.00000   920.14825   920.14825
    35      698.74945      226.28777    -9     7    -7   0.05406  -0.05100   0.00292  21.74905   0.04058  89.25064           0.00           0.00     0.00000     0.00000     0.00000     0.00000     0.00000     0.00000     0.00000
    28      454.66577       47.76158    -7     7    -9   0.00688   0.02186   0.00074  19.88913   0.04053 100.54050        3992.00        9778.28     1.37871     1.69459   168.60364     0.17356     0.00000    27.91696    27.91696
    33      971.55884       85.57585   -11     5    -7  -0.35031  -0.31616   0.01558  21.19107   0.03885  97.70824         666.00        2609.28     1.34159     1.66965    18.21812     0.12186     0.00000   971.97205   971.97205
latticeparameters=   0.54323   0.54487   0.54092  89.94843  90.19475  90.25847
dpsx, dpsy: 179.00000 168.38699
dd, xcent, ycent:      150.57201      540.60303      212.87601
pitch,yaw,roll:  -0.22645   0.61642   0.00000
dev1, dev2, pixdev:   0.01230   0.01213   0.25563
deviatoric strain in crystal reference u1 u2 u3 (*10^3)
   0.42474  -2.26336  -1.69303
  -2.26336   3.42797   0.44071
  -1.69303   0.44071  -3.83937
deviatoric strain in sample reference X Y Z (*10^3)
  -0.27511  -0.84972   0.48468
  -0.84972   4.66851   0.18631
   0.48468   0.18631  -4.38006
deviatoric principal strains (*10^3):   4.81167  -0.35285  -4.44548
deviatoric strain principal axes in sample reference:
  -0.16370   0.98644   0.01136
   0.97897   0.16101   0.12527
  -0.12174  -0.03163   0.99206
deviatoric stress in crystal reference u1 u2 u3 (MPa)
       44.04930     -359.91919     -269.22574
     -359.91919      349.47800       70.08187
     -269.22574       70.08187     -389.61124
deviatoric stress in sample reference X Y Z (MPa)
      -39.30545     -198.37308      -28.65958
     -198.37308      572.00946       22.81149
      -28.65958       22.81149     -528.78796
deviatoric principal stresses (MPa):      631.51617      -97.01670     -530.58344
deviatoric stress principal axes in sample reference:
       -0.28450        0.95833        0.02587
       -0.95716       -0.28546        0.04845
        0.05382       -0.01098        0.99849
total strain in sample reference X Y Z (*10^3)
   1.52643  -0.84972   0.48468
  -0.84972   6.47005   0.18631
   0.48468   0.18631  -2.57852
total principal strains (*10^3):   6.61321   1.44869  -2.64394
total strain principal axes in sample reference:
  -0.16370   0.98645   0.01136
   0.97897   0.16101   0.12527
  -0.12174  -0.03163   0.99206
total stress in crystal reference u1 u2 u3 (MPa)
      572.83728     -359.91919     -269.22574
     -359.91919      878.26599       70.08187
     -269.22574       70.08187      139.17673
total stress in sample reference X Y Z (MPa)
      489.48254     -198.37308      -28.65958
     -198.37308     1100.79749       22.81149
      -28.65958       22.81149        0.00000
total principal stresses (MPa):     1160.30420      431.77127       -1.79544
total stress principal axes in sample reference:
       -0.28450        0.95833        0.02587
       -0.95716       -0.28546        0.04845
        0.05382       -0.01098        0.99849
dilatational strain (*10^-3):        1.80154
hydrostatic stress (MPa):      530.09332
Von Mises stress (MPa):     1017.15680
equivalent strain (*10^-3):        5.35655
equivalent stress (MPa):     1017.15680
maximum resolved shear stress:       13.94273
coordinates of a, b, c in X, Y, Z
   0.44440  -0.20243   0.23851
   0.19252   0.50581   0.06500
  -0.24574   0.03224   0.48105
coordinates of a*, b*, c* in X, Y, Z
   1.50606  -0.67792   0.81480
   0.65598   1.70061   0.22112
  -0.83533   0.10634   1.64669
