\\vmware-host\Shared Folders\Desktop\SiHyperlaueFinal_shielded_results\results_00125.STR
Number of grains:       1
Grain no:       1   Grainlist file index:       1    Number of peaks:      33
no   x(exp)  y(exp)  h  k  l xdev  ydev  angdev  energy  dspace  twotheta  intens   integr  xwidth   ywidth  tilt  rfactor   pearson  xcentroid  ycentroid
     3      392.64142      872.03052    -2     4    -2  -0.44821   0.17357   0.02561  12.43465   0.11119  53.27845       23842.00       37564.83     1.24463     1.24594   109.45161     0.18770     0.00000   992.03656   992.03656
     6      746.38898      951.32489    -3     3    -1  -0.31677   0.57700   0.02121  11.58310   0.12502  50.69372       32269.00       85751.83     1.60385     1.96672   156.29936     0.24722     0.00000   925.35327   925.35327
    13      991.68781      299.61639    -4     2    -2   0.05289  -0.07134   0.00291   8.25642   0.11087  85.25929       30358.00       50401.83     1.20937     1.50207   179.32684     0.21048     0.00000   282.89346   282.89346
     4      546.07739      225.17957    -3     3    -3   0.13864   0.12239   0.00761   8.44715   0.10453  89.19241       36638.00      134328.83     1.83148     1.88196    22.83388     0.22443     0.00000   546.38196   546.38196
     7     1026.48083      909.52826    -5     3    -1  -0.25051   0.08345   0.01146  14.48347   0.09202  55.44074       29030.00      142226.83     1.90832     2.94576   175.93500     0.30943     0.00000   426.89328   426.89328
     5      925.02002      683.00665    -6     4    -2   0.13676  -0.05093   0.00659  16.07234   0.07272  64.06716       30360.00       75958.83     1.57268     1.83974   168.20432     0.22261     0.00000  1026.77759  1026.77759
     2      426.65530      666.13269    -3     5    -3   0.36850  -0.04853   0.02026  14.34434   0.08301  62.74653       26547.00       81549.83     1.68382     2.02506   178.20154     0.21047     0.00000   746.68677   746.68677
    28        5.01990      893.47424    -1     7    -5   0.60060   0.01572   0.02580  20.99255   0.06280  56.09896        3579.00        8822.83     1.38446     1.66970   169.20490     0.16788     0.00000    27.92145    27.92145
    12      648.66772      500.21005    -6     6    -4   0.22520  -0.00803   0.01173  18.17625   0.05799  72.04711       25500.00       52508.83     1.25981     1.71718   178.41904     0.23574     0.00000   331.86862   331.86862
     8      668.66687      570.50061    -5     5    -3   0.17229  -0.06741   0.00936  15.62833   0.07085  68.09411        1623.00        6206.48     1.63917     2.15556    82.22453     0.13624     0.00000     7.03647     7.03647
    14      868.13519      257.27432    -5     3    -3   0.06499   0.23083   0.00754  10.82479   0.08283  87.48657       12072.00       20804.83     1.18791     1.43462     3.27694     0.17877     0.00000   258.93848   258.93848
     9      331.59863      270.38181    -4     6    -6  -0.52451  -0.09782   0.02393  15.66881   0.05790  86.21395       18850.00       40081.83     1.09002     1.87738     0.00000     0.18890     0.00000   649.00165   649.00165
    10      282.61743      288.49811    -3     5    -5  -0.47849  -0.09560   0.02148  12.96483   0.07071  85.10328       44313.00       66008.83     1.08408     1.52686     0.05633     0.19121     0.00000   669.00421   669.00421
    19      258.62692      619.59802    -3     7    -5  -0.23969  -0.23759   0.01393  19.07022   0.05971  65.97392       15384.00       29832.83     1.21461     1.68653     5.92806     0.21479     0.00000   129.73541   129.73541
    17      858.90747      567.49878    -7     5    -3   0.20435  -0.33003   0.01353  18.23750   0.05971  69.39620        7271.00       17651.83     1.09165     1.94548     0.05003     0.29842     0.00000   464.01340   464.01340
    32      475.07135      454.86649    -6     8    -6  -0.02841  -0.00242   0.00147  21.94763   0.04663  74.55791        2425.00        5414.83     1.09360     1.55508   177.58833     0.14700     0.00000   454.98499   454.98499
    20      463.67090      498.14627    -5     7    -5   0.34491  -0.12693   0.01840  19.29602   0.05467  71.98285       11968.00       24719.83     1.18069     1.73056   177.53085     0.21667     0.00000   439.08188   439.08188
    22      721.87372      228.63506    -8     6    -6   0.09733   0.02227   0.00441  18.97104   0.04657  89.11547       19886.00       29051.83     1.15408     1.25995   179.22598     0.18592     0.00000   753.88666   753.88666
    15      129.38329       39.63082    -3     5    -7  -0.19557   0.20394   0.00918  13.61046   0.05952  99.85789       11633.00       27345.83     1.50476     1.68268    70.96828     0.21940     0.00000   859.20947   859.20947
    18      438.70401       20.96895    -6     6    -8   0.51947   0.33060   0.02323  17.13055   0.04651 102.15896        7927.00       16239.83     1.23042     1.56809   177.62119     0.20663     0.00000   722.14984   722.14984
    31     1012.70569      601.53357    -9     5    -3   0.03149  -0.24736   0.00645  21.59112   0.05071  68.96617         453.00        2044.83     1.27210     1.94522     5.39102     0.09935     0.00000   699.01874   699.01874
    16      753.59833      232.68857    -7     5    -5  -0.27326   0.20101   0.01359  16.22060   0.05459  88.87504         791.00        3039.83     1.56408     1.82394   176.78641     0.10695     0.00000   475.05060   475.05060
    21      145.61380      355.22934    -3     7    -7  -0.21131  -0.04323   0.00888  18.12008   0.05250  81.32878        1133.00        3202.83     1.34456     1.60453   170.87776     0.10473     0.00000  1013.00494  1013.00494
    23      364.76608      259.68951    -5     7    -7  -0.05641  -0.13234   0.00498  18.40842   0.04897  86.89157        6511.00       16364.83     1.24281     1.88181   179.18222     0.16886     0.00000   145.92653   145.92653
    30      784.13031       52.53460   -10     6    -8  -0.01142   0.02280   0.00081  21.07116   0.03837 100.14505        4781.00        8346.83     1.12030     1.35520   177.07542     0.14123     0.00000   262.01660   262.01660
    34      300.68387       92.96877    -6     8   -10  -0.03050   0.01560   0.00132  21.51835   0.03836  97.34339         522.00        2764.24     1.23885     2.33164     5.66252     0.52932     0.00000   615.84363   615.84363
    24      919.96765      273.24133    -9     5    -5   0.06249  -0.03239   0.00269  19.04290   0.04745  86.63196        8690.00       14828.83     1.20320     1.33277   179.80096     0.17952     0.00000   365.10220   365.10220
    26       27.57690      162.46133    -3     7    -9   0.20876  -0.00189   0.00702  18.64786   0.04601  92.52901         773.00        2359.83     1.11624     1.76521   178.74512     0.09851     0.00000   301.02249   301.02249
    25      822.87555       31.35453    -9     5    -7   0.17462   0.01985   0.00662  18.39522   0.04357 101.32200         808.00        3668.83     1.66844     1.85422    85.64716     0.13404     0.00000   784.07050   784.07050
    27      261.68024       78.65986    -5     7    -9  -0.03587  -0.06966   0.00250  18.83595   0.04357  98.10842        3025.00       10371.83     1.76332     1.84399    31.18128     0.17284     0.00000   920.13708   920.13708
    35      698.75629      226.29974    -9     7    -7   0.10548  -0.06800   0.00521  21.73836   0.04060  89.25101           0.00           0.00     0.00000     0.00000     0.00000     0.00000     0.00000     0.00000     0.00000
    29      454.66681       47.77568    -7     7    -9   0.09029   0.02542   0.00381  19.87861   0.04055 100.53955        3417.00       10104.83     1.49747     1.87179    36.34993     0.20773     0.00000   823.12006   823.12006
    33      971.56976       85.56966   -11     5    -7  -0.47088  -0.17829   0.01739  21.18920   0.03885  97.70096         615.00        2440.83     1.37278     1.71477    15.85652     0.11131     0.00000   971.99982   971.99982
latticeparameters=   0.54287   0.54539   0.54076  89.96471  90.24531  90.28884
dpsx, dpsy: 179.00000 168.38699
dd, xcent, ycent:      150.57201      540.60303      212.87601
pitch,yaw,roll:  -0.22645   0.61642   0.00000
dev1, dev2, pixdev:   0.01384   0.01335   0.26820
deviatoric strain in crystal reference u1 u2 u3 (*10^3)
  -0.23507  -2.53166  -2.13186
  -2.53166   4.38685   0.29593
  -2.13186   0.29593  -4.13359
deviatoric strain in sample reference X Y Z (*10^3)
  -0.44065  -0.52456   0.06729
  -0.52456   5.58728   0.31441
   0.06729   0.31441  -5.12844
deviatoric principal strains (*10^3):   5.64136  -0.48406  -5.13912
deviatoric strain principal axes in sample reference:
  -0.08558   0.99592   0.02854
   0.99617   0.08502   0.02019
  -0.01768  -0.03016   0.99939
deviatoric stress in crystal reference u1 u2 u3 (MPa)
      -22.74373     -402.58533     -339.00870
     -402.58533      447.30606       47.05893
     -339.00870       47.05893     -419.22357
deviatoric stress in sample reference X Y Z (MPa)
      -43.75398     -176.85440      -90.69329
     -176.85440      676.72968       31.38612
      -90.69329       31.38612     -627.63690
deviatoric principal stresses (MPa):      719.74921      -72.99474     -641.41565
deviatoric stress principal axes in sample reference:
       -0.22979        0.97249        0.03812
       -0.96177       -0.23291        0.14409
        0.14900       -0.00355        0.98883
total strain in sample reference X Y Z (*10^3)
   1.69766  -0.52456   0.06729
  -0.52456   7.72559   0.31441
   0.06729   0.31441  -2.99013
total principal strains (*10^3):   7.77967   1.65425  -3.00081
total strain principal axes in sample reference:
  -0.08558   0.99592   0.02854
   0.99617   0.08502   0.02019
  -0.01768  -0.03016   0.99939
total stress in crystal reference u1 u2 u3 (MPa)
      604.89319     -402.58533     -339.00870
     -402.58533     1074.94299       47.05893
     -339.00870       47.05893      208.41335
total stress in sample reference X Y Z (MPa)
      583.88293     -176.85440      -90.69329
     -176.85440     1304.36658       31.38612
      -90.69329       31.38612        0.00000
total principal stresses (MPa):     1347.38623      554.64209      -13.77877
total stress principal axes in sample reference:
       -0.22979        0.97249        0.03812
       -0.96177       -0.23291        0.14409
        0.14900       -0.00355        0.98883
dilatational strain (*10^-3):        2.13831
hydrostatic stress (MPa):      629.41650
Von Mises stress (MPa):     1184.12732
equivalent strain (*10^-3):        6.24338
equivalent stress (MPa):     1184.12732
maximum resolved shear stress:       19.08900
coordinates of a, b, c in X, Y, Z
   0.44372  -0.20269   0.23791
   0.19269   0.50588   0.06535
  -0.24584   0.03194   0.48044
coordinates of a*, b*, c* in X, Y, Z
   1.50538  -0.67872   0.81541
   0.65586   1.69725   0.22277
  -0.83464   0.10525   1.64635
