\\vmware-host\Shared Folders\Desktop\SiHyperlaueFinal_shielded_results\results_00062.STR
Number of grains:       1
Grain no:       1   Grainlist file index:       1    Number of peaks:      33
no   x(exp)  y(exp)  h  k  l xdev  ydev  angdev  energy  dspace  twotheta  intens   integr  xwidth   ywidth  tilt  rfactor   pearson  xcentroid  ycentroid
     2      392.62711      871.97858    -2     4    -2  -0.32413  -0.10757   0.01879  12.44788   0.11105  53.29185       43721.00      151823.75     1.78239     2.07273   178.57607     0.20526     0.00000   746.64111   746.64111
     5      746.31647      951.26563    -3     3    -1  -0.34153   0.53418   0.02200  11.59361   0.12490  50.69685       41885.00      108851.74     1.61377     1.93239   118.60388     0.18400     0.00000  1026.76086  1026.76086
    13      991.67523      299.62234    -4     2    -2   0.12118  -0.06598   0.00502   8.25859   0.11084  85.25879       39022.00       68324.74     1.23061     1.57368   179.33070     0.22460     0.00000   282.87589   282.87589
     3      546.04364      225.15108    -3     3    -3   0.11213   0.17932   0.00787   8.45274   0.10446  89.19051       30768.00       47284.74     1.23186     1.24410   173.36610     0.18315     0.00000   992.01477   992.01477
     7     1026.43384      909.50830    -5     3    -1  -0.27783   0.25937   0.01390  14.49326   0.09197  55.43370         458.00        1453.74     1.17892     1.47228   175.12807     0.07208     0.00000    62.02095    62.02095
     6      924.99603      683.04034    -6     4    -2   0.08700   0.01090   0.00404  16.08278   0.07268  64.06180       41182.00      109452.74     1.65008     1.92639   138.21405     0.23267     0.00000   925.34637   925.34637
    36       61.82836      407.68814    -1     3    -3   0.22677   0.29291   0.01243   7.85979   0.12446  78.64947           0.00           0.00     0.00000     0.00000     0.00000     0.00000     0.00000     0.00000     0.00000
     4      426.62454      666.11896    -3     5    -3   0.45457  -0.12769   0.02508  14.35978   0.08292  62.75116       58108.00      196325.75     1.80531     1.87641     9.60897     0.22936     0.00000   546.37537   546.37537
    14      648.66718      500.22681    -6     6    -4   0.16208   0.01993   0.00845  18.19132   0.05795  72.04429       13367.00       23834.74     1.22238     1.46495     4.56459     0.18799     0.00000   258.91635   258.91635
     8      668.66705      570.50299    -5     5    -3   0.10395  -0.03348   0.00560  15.64174   0.07079  68.09182       39897.00      187263.75     1.90430     2.80245   175.34456     0.30569     0.00000   426.84293   426.84293
    11      868.09454      257.30328    -5     3    -3   0.09124   0.19693   0.00709  10.82856   0.08280  87.48685       21646.00       60598.74     1.67377     1.96380   138.58377     0.20943     0.00000   868.36578   868.36578
    10      331.58957      270.35828    -4     6    -6  -0.49618  -0.03892   0.02245  15.68235   0.05785  86.21171       55189.00       82201.74     1.08448     1.53057     0.06725     0.19205     0.00000   669.00507   669.00507
     9      282.60925      288.46173    -3     5    -5  -0.42064  -0.03238   0.01869  12.97650   0.07065  85.10157       22623.00       47189.74     1.09073     1.86543     0.04202     0.19388     0.00000   649.00226   649.00226
    19      258.61349      619.59106    -3     7    -5  -0.05222  -0.38513   0.01059  19.09104   0.05964  65.98086       19872.00       39066.74     1.24042     1.68363     6.90052     0.23268     0.00000   129.71317   129.71317
    17      858.86816      567.51965    -7     5    -3   0.17090  -0.27854   0.01136  18.24921   0.05968  69.39176        8443.00       20988.74     1.08802     1.94640     0.00667     0.30272     0.00000   464.01273   464.01273
    31      475.00476      454.84451    -6     8    -6   0.03382   0.04832   0.00231  21.96844   0.04659  74.55617         474.00        2144.74     1.29014     2.02539     7.43930     0.09679     0.00000   698.99335   698.99335
    20      463.66980      498.16214    -5     7    -5   0.35380  -0.12918   0.01887  19.31505   0.05462  71.98204       14182.00       28595.74     1.17044     1.72390   177.56682     0.21993     0.00000   439.06754   439.06754
    22      721.84760      228.64146    -8     6    -6   0.06371   0.01906   0.00291  18.98016   0.04655  89.11521       23429.00       34792.74     1.16897     1.28207   178.98373     0.19513     0.00000   753.88049   753.88049
    15      129.38356       39.62092    -3     5    -7  -0.21785   0.21216   0.00994  13.62001   0.05948  99.85787       14405.00       31770.74     1.47243     1.61152    31.11366     0.22512     0.00000   859.19482   859.19482
    18      438.69980       20.96747    -6     6    -8   0.43192   0.29367   0.01957  17.13940   0.04649 102.16113        9574.00       18918.74     1.21805     1.51749   178.62350     0.21328     0.00000   722.17133   722.17133
    30     1012.69604      601.55444    -9     5    -3   0.02410  -0.14434   0.00384  21.60193   0.05069  68.95981        5401.00        9539.74     1.11662     1.36756   178.85123     0.15320     0.00000   261.99197   261.99197
    16      753.58911      232.69473    -7     5    -5  -0.31750   0.19458   0.01525  16.22791   0.05456  88.87501         947.00        3247.74     1.54580     1.78733   169.56802     0.10965     0.00000   475.05417   475.05417
    21      145.61026      355.20050    -3     7    -7  -0.04905  -0.04380   0.00245  18.13769   0.05245  81.33002        1261.00        3344.74     1.31176     1.59709   173.53859     0.10331     0.00000  1013.02112  1013.02112
    23      364.75833      259.68668    -5     7    -7  -0.04764  -0.09104   0.00365  18.42382   0.04893  86.88912        7280.00       19051.74     1.24946     1.89568   178.92256     0.17976     0.00000   145.92854   145.92854
    29      784.13727       52.54524   -10     6    -8  -0.03714  -0.10230   0.00349  21.07599   0.03835 100.15207        4004.00       11648.74     1.50501     1.89194    68.91218     0.20135     0.00000   823.13715   823.13715
    32      300.68506       92.94656    -6     8   -10  -0.07245   0.04987   0.00332  21.53318   0.03834  97.34253        2898.00        5894.74     1.08032     1.46484     1.30049     0.14690     0.00000   454.99936   454.99936
    25      919.92218      273.30069    -9     5    -5   0.11943  -0.09311   0.00555  19.04879   0.04744  86.63206         860.00        3834.74     1.61340     1.89051    78.80622     0.14421     0.00000   784.05176   784.05176
    26       27.57163      162.43570    -3     7    -9   0.31916   0.01908   0.01074  18.66327   0.04597  92.52947         893.00        2711.74     1.14336     1.73881   175.77126     0.10834     0.00000   301.01892   301.01892
    24      822.87762       31.35491    -9     5    -7   0.18091  -0.12435   0.00756  18.39838   0.04356 101.33056       10029.00       16799.74     1.19998     1.31542     2.85070     0.18340     0.00000   365.09509   365.09509
    27      261.67917       78.65550    -5     7    -9  -0.07167  -0.05607   0.00322  18.84900   0.04354  98.10774        3642.00       11422.74     1.64287     1.83346    19.38087     0.19255     0.00000   920.14856   920.14856
    35      698.74121      226.29131    -9     7    -7   0.05738  -0.05343   0.00309  21.74932   0.04058  89.25057           0.00           0.00     0.00000     0.00000     0.00000     0.00000     0.00000     0.00000     0.00000
    28      454.66656       47.75002    -7     7    -9   0.00557   0.02437   0.00080  19.88925   0.04053 100.54107        3949.00        9876.74     1.39739     1.71596   169.44153     0.17131     0.00000    27.91443    27.91443
    33      971.54346       85.58259   -11     5    -7  -0.33032  -0.32745   0.01524  21.19110   0.03885  97.70849         657.00        2465.74     1.40298     1.72376    13.80132     0.10613     0.00000   971.95923   971.95923
latticeparameters=   0.54324   0.54484   0.54093  89.95002  90.19421  90.25814
dpsx, dpsy: 179.00000 168.38699
dd, xcent, ycent:      150.57201      540.60303      212.87601
pitch,yaw,roll:  -0.22645   0.61642   0.00000
dev1, dev2, pixdev:   0.01221   0.01201   0.25220
deviatoric strain in crystal reference u1 u2 u3 (*10^3)
   0.44991  -2.26038  -1.68836
  -2.26038   3.38381   0.42685
  -1.68836   0.42685  -3.82059
deviatoric strain in sample reference X Y Z (*10^3)
  -0.25732  -0.86400   0.48380
  -0.86400   4.63048   0.16594
   0.48380   0.16594  -4.36003
deviatoric principal strains (*10^3):   4.77945  -0.34213  -4.42419
deviatoric strain principal axes in sample reference:
  -0.16822   0.98571   0.00899
   0.97825   0.16581   0.12464
  -0.12137  -0.02976   0.99216
deviatoric stress in crystal reference u1 u2 u3 (MPa)
       46.59498     -359.44531     -268.48288
     -359.44531      344.97324       67.87836
     -268.48288       67.87836     -387.71414
deviatoric stress in sample reference X Y Z (MPa)
      -37.35878     -199.34636      -28.76947
     -199.34636      567.91815       20.05448
      -28.76947       20.05448     -526.70526
deviatoric principal stresses (MPa):      628.32684      -96.01302     -528.45972
deviatoric stress principal axes in sample reference:
       -0.28774        0.95741        0.02379
       -0.95612       -0.28860        0.05043
        0.05515       -0.00824        0.99844
total strain in sample reference X Y Z (*10^3)
   1.53712  -0.86400   0.48380
  -0.86400   6.42493   0.16594
   0.48380   0.16594  -2.56558
total principal strains (*10^3):   6.57389   1.45231  -2.62974
total strain principal axes in sample reference:
  -0.16822   0.98571   0.00899
   0.97825   0.16581   0.12464
  -0.12137  -0.02976   0.99216
total stress in crystal reference u1 u2 u3 (MPa)
      573.30023     -359.44531     -268.48288
     -359.44531      871.67853       67.87836
     -268.48288       67.87836      138.99113
total stress in sample reference X Y Z (MPa)
      489.34650     -199.34636      -28.76947
     -199.34636     1094.62341       20.05448
      -28.76947       20.05448        0.00000
total principal stresses (MPa):     1155.03223      430.69226       -1.75445
total stress principal axes in sample reference:
       -0.28774        0.95741        0.02379
       -0.95612       -0.28860        0.05043
        0.05515       -0.00824        0.99844
dilatational strain (*10^-3):        1.79444
hydrostatic stress (MPa):      527.98999
Von Mises stress (MPa):     1012.38171
equivalent strain (*10^-3):        5.32501
equivalent stress (MPa):     1012.38171
maximum resolved shear stress:       15.60578
coordinates of a, b, c in X, Y, Z
   0.44442  -0.20244   0.23852
   0.19252   0.50580   0.06497
  -0.24574   0.03225   0.48108
coordinates of a*, b*, c* in X, Y, Z
   1.50607  -0.67791   0.81478
   0.65604   1.70073   0.22109
  -0.83530   0.10642   1.64671
