\\vmware-host\Shared Folders\Desktop\SiHyperlaueFinal_shielded_results\results_00064.STR
Number of grains:       1
Grain no:       1   Grainlist file index:       1    Number of peaks:      33
no   x(exp)  y(exp)  h  k  l xdev  ydev  angdev  energy  dspace  twotheta  intens   integr  xwidth   ywidth  tilt  rfactor   pearson  xcentroid  ycentroid
     2      392.62817      871.97498    -2     4    -2  -0.32712  -0.10671   0.01896  12.44778   0.11105  53.29197       43490.00      151980.05     1.78252     2.07980   178.62495     0.20611     0.00000   746.64069   746.64069
     5      746.31665      951.25964    -3     3    -1  -0.33922   0.54444   0.02198  11.59356   0.12490  50.69671       42014.00      108353.05     1.60953     1.92274   122.00396     0.18491     0.00000  1026.76550  1026.76550
    14      991.67596      299.62030    -4     2    -2   0.11882  -0.05658   0.00483   8.25860   0.11084  85.25836       13538.00       23863.05     1.22434     1.45813     4.76552     0.18473     0.00000   258.91690   258.91690
     3      546.04181      225.15054    -3     3    -3   0.11094   0.18332   0.00793   8.45274   0.10446  89.19028       30788.00       47033.05     1.23422     1.23700   139.66618     0.18312     0.00000   992.01392   992.01392
     7     1026.43835      909.51172    -5     3    -1  -0.27813   0.26783   0.01399  14.49329   0.09197  55.43330         482.00        1493.05     1.18530     1.46849     1.52612     0.07302     0.00000    62.02622    62.02622
     6      925.00012      683.03864    -6     4    -2   0.08518   0.01963   0.00396  16.08277   0.07268  64.06148       41245.00      109549.05     1.60817     1.97536    25.89470     0.24019     0.00000   925.34247   925.34247
    36       61.80748      407.70041    -1     3    -3   0.24201   0.28290   0.01270   7.85981   0.12446  78.64937           0.00           0.00     0.00000     0.00000     0.00000     0.00000     0.00000     0.00000     0.00000
     4      426.62646      666.11987    -3     5    -3   0.45066  -0.12972   0.02487  14.35970   0.08292  62.75122       58134.00      196503.05     1.80436     1.87632    12.77712     0.22970     0.00000   546.37476   546.37476
    13      648.66724      500.22208    -6     6    -4   0.16144   0.02665   0.00843  18.19127   0.05795  72.04417       39646.00       68964.05     1.22665     1.57745   179.23859     0.22115     0.00000   282.88120   282.88120
     8      668.66711      570.50378    -5     5    -3   0.10387  -0.03227   0.00560  15.64169   0.07079  68.09171       40107.00      188597.05     1.90436     2.81129   175.30989     0.30595     0.00000   426.84476   426.84476
    11      868.09027      257.30875    -5     3    -3   0.09359   0.19740   0.00716  10.82857   0.08280  87.48649       21500.00       60249.05     1.76873     1.85515   116.38980     0.21712     0.00000   868.36407   868.36407
    10      331.58936      270.35507    -4     6    -6  -0.50000  -0.03308   0.02261  15.68237   0.05785  86.21154       55252.00       82156.05     1.08444     1.52875     0.02495     0.19178     0.00000   669.00311   669.00311
     9      282.61087      288.46002    -3     5    -5  -0.42657  -0.02815   0.01894  12.97652   0.07065  85.10142       22589.00       47169.05     1.09048     1.87037   179.99313     0.19150     0.00000   648.99817   648.99817
    19      258.61313      619.58887    -3     7    -5  -0.05580  -0.38395   0.01062  19.09097   0.05964  65.98094       19374.00       38613.05     1.24723     1.70270     7.23226     0.23044     0.00000   129.69865   129.69865
    17      858.88513      567.52167    -7     5    -3   0.15505  -0.27536   0.01075  18.24919   0.05968  69.39148        8225.00       20343.05     1.08760     1.94800     0.03385     0.29798     0.00000   464.01315   464.01315
    31      474.96976      454.86420    -6     8    -6   0.06658   0.02943   0.00358  21.96839   0.04659  74.55612         546.00        2233.05     1.23256     1.95623     5.25670     0.09857     0.00000   699.02979   699.02979
    20      463.66940      498.16803    -5     7    -5   0.35203  -0.13469   0.01881  19.31499   0.05462  71.98202       13794.00       28078.05     1.17340     1.73131   177.70660     0.21832     0.00000   439.07999   439.07999
    22      721.85217      228.63855    -8     6    -6   0.05679   0.02659   0.00268  18.98017   0.04655  89.11491       23386.00       34531.05     1.16430     1.28458   177.21928     0.19445     0.00000   753.87384   753.87384
    15      129.37115       39.61777    -3     5    -7  -0.21055   0.22258   0.00994  13.62009   0.05948  99.85743       14155.00       31535.05     1.47934     1.62929    65.61299     0.22117     0.00000   859.20978   859.20978
    18      438.70078       20.96899    -6     6    -8   0.42623   0.29857   0.01944  17.13946   0.04649 102.16073        9447.00       18781.05     1.23407     1.52362   177.92014     0.21248     0.00000   722.16901   722.16901
    30     1012.69904      601.57642    -9     5    -3   0.02286  -0.15805   0.00416  21.60196   0.05069  68.95941        5395.00        9365.05     1.11918     1.36314   177.35843     0.14862     0.00000   262.00903   262.00903
    16      753.58826      232.69310    -7     5    -5  -0.31890   0.20108   0.01539  16.22792   0.05456  88.87470         933.00        3052.05     1.57323     1.73015   169.15913     0.10528     0.00000   475.06891   475.06891
    21      145.60973      355.19647    -3     7    -7  -0.05363  -0.03745   0.00252  18.13773   0.05245  81.32990        1346.00        3638.05     1.32727     1.59028   173.08783     0.10992     0.00000  1013.02191  1013.02191
    23      364.75586      259.68619    -5     7    -7  -0.04903  -0.08783   0.00361  18.42384   0.04893  86.88894        7233.00       19219.05     1.25491     1.90086   179.13487     0.18090     0.00000   145.92313   145.92313
    29      784.10522       52.57877   -10     6    -8  -0.00943  -0.12856   0.00395  21.07603   0.03835 100.15164        4000.00       11629.05     1.50793     1.85299    85.44822     0.20856     0.00000   823.13239   823.13239
    32      300.68201       92.94853    -6     8   -10  -0.07412   0.05329   0.00343  21.53327   0.03834  97.34218        2844.00        5960.05     1.08535     1.49298     1.55296     0.15021     0.00000   455.00708   455.00708
    25      919.92657      273.29501    -9     5    -5   0.11325  -0.08093   0.00516  19.04882   0.04744  86.63167         908.00        3886.05     1.50554     1.82095   166.27872     0.14496     0.00000   784.07648   784.07648
    26       27.57393      162.43033    -3     7    -9   0.31150   0.03030   0.01050  18.66338   0.04597  92.52913         892.00        2602.05     1.14954     1.73498   176.12451     0.10271     0.00000   301.02145   301.02145
    24      822.87909       31.38031    -9     5    -7   0.17469  -0.14184   0.00761  18.39842   0.04356 101.33011        9828.00       16375.05     1.20718     1.30746     0.72896     0.18085     0.00000   365.11099   365.11099
    27      261.68039       78.65737    -5     7    -9  -0.07775  -0.05216   0.00337  18.84908   0.04354  98.10737        3638.00       11531.05     1.65021     1.84561    10.79254     0.18516     0.00000   920.14551   920.14551
    35      698.72644      226.36606    -9     7    -7   0.06973  -0.12375   0.00505  21.74933   0.04058  89.25028           0.00           0.00     0.00000     0.00000     0.00000     0.00000     0.00000     0.00000     0.00000
    28      454.66638       47.75339    -7     7    -9   0.00123   0.02693   0.00085  19.88931   0.04053 100.54069        4046.00       10189.05     1.38441     1.72384   170.07172     0.17623     0.00000    27.93823    27.93823
    33      971.54193       85.54978   -11     5    -7  -0.33347  -0.28598   0.01457  21.19114   0.03885  97.70800         625.00        2564.05     1.40774     1.79389    19.37430     0.11745     0.00000   971.97076   971.97076
latticeparameters=   0.54324   0.54485   0.54092  89.94911  90.19375  90.25830
dpsx, dpsy: 179.00000 168.38699
dd, xcent, ycent:      150.57201      540.60303      212.87601
pitch,yaw,roll:  -0.22645   0.61642   0.00000
dev1, dev2, pixdev:   0.01223   0.01202   0.25487
deviatoric strain in crystal reference u1 u2 u3 (*10^3)
   0.44670  -2.26177  -1.68434
  -2.26177   3.39555   0.43480
  -1.68434   0.43480  -3.82904
deviatoric strain in sample reference X Y Z (*10^3)
  -0.26604  -0.86211   0.49043
  -0.86211   4.64170   0.17235
   0.49043   0.17235  -4.36246
deviatoric principal strains (*10^3):   4.78958  -0.34770  -4.42868
deviatoric strain principal axes in sample reference:
  -0.16718   0.98588   0.00961
   0.97820   0.16465   0.12656
  -0.12319  -0.03056   0.99191
deviatoric stress in crystal reference u1 u2 u3 (MPa)
       46.27300     -359.66620     -267.84421
     -359.66620      346.17136       69.14160
     -267.84421       69.14160     -388.56955
deviatoric stress in sample reference X Y Z (MPa)
      -38.60225     -199.33452      -27.87471
     -199.33452      569.15643       20.98741
      -27.87471       20.98741     -526.67938
deviatoric principal stresses (MPa):      629.38373      -97.15155     -528.35736
deviatoric stress principal axes in sample reference:
       -0.28680        0.95768        0.02430
       -0.95653       -0.28767        0.04802
        0.05298       -0.00947        0.99855
total strain in sample reference X Y Z (*10^3)
   1.52832  -0.86211   0.49043
  -0.86211   6.43606   0.17235
   0.49043   0.17235  -2.56810
total principal strains (*10^3):   6.58393   1.44666  -2.63432
total strain principal axes in sample reference:
  -0.16718   0.98588   0.00961
   0.97820   0.16465   0.12656
  -0.12319  -0.03056   0.99191
total stress in crystal reference u1 u2 u3 (MPa)
      572.95239     -359.66620     -267.84421
     -359.66620      872.85077       69.14160
     -267.84421       69.14160      138.10983
total stress in sample reference X Y Z (MPa)
      488.07712     -199.33452      -27.87471
     -199.33452     1095.83582       20.98741
      -27.87471       20.98741        0.00000
total principal stresses (MPa):     1156.06311      429.52783       -1.67798
total stress principal axes in sample reference:
       -0.28680        0.95768        0.02430
       -0.95653       -0.28767        0.04802
        0.05298       -0.00947        0.99855
dilatational strain (*10^-3):        1.79436
hydrostatic stress (MPa):      527.97101
Von Mises stress (MPa):     1013.44867
equivalent strain (*10^-3):        5.33380
equivalent stress (MPa):     1013.44867
maximum resolved shear stress:       15.24460
coordinates of a, b, c in X, Y, Z
   0.44442  -0.20244   0.23852
   0.19252   0.50581   0.06498
  -0.24574   0.03225   0.48107
coordinates of a*, b*, c* in X, Y, Z
   1.50607  -0.67792   0.81477
   0.65603   1.70071   0.22109
  -0.83532   0.10640   1.64671
