\\vmware-host\Shared Folders\Desktop\SiHyperlaueFinal_shielded_results\results_00005.STR
Number of grains:       1
Grain no:       1   Grainlist file index:       1    Number of peaks:      33
no   x(exp)  y(exp)  h  k  l xdev  ydev  angdev  energy  dspace  twotheta  intens   integr  xwidth   ywidth  tilt  rfactor   pearson  xcentroid  ycentroid
     3      392.61551      871.97919    -2     4    -2  -0.33281  -0.10944   0.01929  12.44824   0.11104  53.29200       51596.00       76533.52     1.22605     1.23804   172.07471     0.17943     0.00000   991.98444   991.98444
     4      746.26343      951.28632    -3     3    -1  -0.31564   0.54421   0.02082  11.59415   0.12490  50.69547      109068.00      355741.50     1.77589     1.87462     1.28431     0.23323     0.00000   546.36774   546.36774
    13      991.65778      299.62387    -4     2    -2   0.11361  -0.01292   0.00434   8.25890   0.11084  85.25557       60728.00      105434.52     1.23976     1.55788   178.99812     0.23313     0.00000   282.86432   282.86432
     2      546.01367      225.15930    -3     3    -3   0.12991   0.20015   0.00893   8.45303   0.10446  89.18861       74086.00      259286.52     1.82638     2.04990   168.48212     0.21732     0.00000   746.59778   746.59778
     6     1026.40637      909.56281    -5     3    -1  -0.28443   0.26229   0.01420  14.49409   0.09196  55.43102       49634.00      134525.52     1.65298     1.89848   102.42743     0.25088     0.00000   925.32648   925.32648
     7      924.95636      683.09100    -6     4    -2   0.09786   0.00705   0.00455  16.08357   0.07268  64.05924        2540.00        4469.52     1.15502     1.44483   179.81947     0.09609     0.00000    62.05701    62.05701
    29       61.80914      407.68924    -1     3    -3   0.23769   0.28982   0.01270   7.86000   0.12446  78.64962        4985.00       13456.51     1.43874     1.75993    81.91885     0.22180     0.00000   823.13593   823.13593
     5      426.60297      666.14453    -3     5    -3   0.45780  -0.14333   0.02529  14.36028   0.08292  62.75070       55385.00      144622.52     1.64074     1.87826   107.00841     0.19421     0.00000  1026.72729  1026.72729
    15      648.66705      500.27209    -6     6    -4   0.14240   0.00347   0.00741  18.19207   0.05795  72.04253       18312.00       37365.52     1.42760     1.53346    75.64604     0.22543     0.00000   859.18726   859.18726
    10      668.66681      570.53076    -5     5    -3   0.08289  -0.03233   0.00450  15.64241   0.07079  68.09013       72630.00      105308.52     1.08446     1.48216   179.95882     0.19125     0.00000   668.99762   668.99762
     8      868.05231      257.36938    -5     3    -3   0.11291   0.17799   0.00716  10.82896   0.08280  87.48394       58499.00      254819.52     1.89466     2.66546   175.11118     0.30555     0.00000   426.80054   426.80054
    12      331.58005      270.36667    -4     6    -6  -0.49584  -0.03075   0.02242  15.68287   0.05785  86.21066       38044.00       81361.52     1.30573     1.73470   177.86678     0.25218     0.00000   331.84015   331.84015
     9      282.60574      288.47009    -3     5    -5  -0.42592  -0.02723   0.01891  12.97693   0.07064  85.10073       28138.00       55690.52     1.09006     1.83685   179.95848     0.20152     0.00000   649.00330   649.00330
    19      258.60886      619.59235    -3     7    -5  -0.06277  -0.38580   0.01079  19.09162   0.05964  65.98092       28925.00       56491.52     1.24384     1.68454     7.48913     0.24658     0.00000   129.68460   129.68460
    17      858.84161      567.55811    -7     5    -3   0.17186  -0.27479   0.01133  18.25004   0.05968  69.38929        9156.00       23583.52     1.08648     1.95208   179.88177     0.30109     0.00000   464.00912   464.00912
    32      474.94717      454.86856    -6     8    -6   0.07567   0.04350   0.00416  21.96927   0.04659  74.55501        3192.00        6573.52     1.07902     1.55628     0.40766     0.15482     0.00000   455.00729   455.00729
    20      463.66904      498.19464    -5     7    -5   0.33823  -0.14426   0.01816  19.31578   0.05461  71.98103       16530.00       34057.52     1.17274     1.75873   177.52650     0.22367     0.00000   439.08917   439.08917
    22      721.83374      228.65366    -8     6    -6   0.06140   0.04569   0.00311  18.98083   0.04655  89.11271       28525.00       43583.52     1.18874     1.30245   178.76704     0.21189     0.00000   753.85565   753.85565
    14      129.38341       39.61834    -3     5    -7  -0.21641   0.22868   0.01021  13.62036   0.05948  99.85708       15743.00       27723.52     1.23210     1.45694     5.47566     0.19291     0.00000   258.91068   258.91068
    18      438.70062       20.99227    -6     6    -8   0.42683   0.29857   0.01946  17.13989   0.04649 102.15929       11523.00       22012.52     1.20899     1.49291   178.09145     0.21819     0.00000   722.15710   722.15710
    31     1012.68976      601.60510    -9     5    -3   0.00004  -0.14160   0.00354  21.60297   0.05069  68.95684         557.00        2421.51     1.25983     1.99930     7.09042     0.11253     0.00000   698.99072   698.99072
    16      753.58051      232.70448    -7     5    -5  -0.32593   0.22542   0.01600  16.22848   0.05456  88.87242        1134.00        3668.51     1.59256     1.69638   161.90195     0.11948     0.00000   475.05606   475.05606
    21      145.60571      355.19681    -3     7    -7  -0.05274  -0.03582   0.00246  18.13823   0.05245  81.32979        1424.00        3688.51     1.33264     1.50811   170.21333     0.10968     0.00000  1013.00092  1013.00092
    23      364.74661      259.68832    -5     7    -7  -0.04544  -0.07408   0.00317  18.42444   0.04893  86.88793        8575.00       22291.52     1.25734     1.89681   179.26695     0.18408     0.00000   145.90440   145.90440
    30      784.10620       52.60372   -10     6    -8  -0.01957  -0.11312   0.00356  21.07660   0.03835 100.14920        6166.00       10686.51     1.11938     1.36695   177.03235     0.15682     0.00000   262.04001   262.04001
    34      300.68140       93.01985    -6     8   -10  -0.07245  -0.00296   0.00290  21.53381   0.03834  97.34125         522.00        2764.24     1.23885     2.33164     5.66252     0.52932     0.00000   615.84363   615.84363
    24      919.89471      273.37039    -9     5    -5   0.12455  -0.11259   0.00604  19.04950   0.04744  86.62902       11926.00       19468.52     1.20499     1.28826     2.04109     0.18598     0.00000   365.10611   365.10611
    26       27.56908      162.42458    -3     7    -9   0.32071   0.03514   0.01082  18.66375   0.04597  92.52919         913.00        2831.51     1.13095     1.84137   179.48000     0.10482     0.00000   301.01266   301.01266
    25      822.85168       31.44032    -9     5    -7   0.19280  -0.15895   0.00844  18.39890   0.04356 101.32757        1020.00        4246.52     1.46616     1.81421   167.79359     0.15301     0.00000   784.09985   784.09985
    27      261.67938       78.65955    -5     7    -9  -0.07434  -0.04110   0.00311  18.84954   0.04354  98.10657        4767.00       13571.51     1.59851     1.75332    20.96698     0.20695     0.00000   920.14459   920.14459
    35      698.73364      226.36388    -9     7    -7   0.04938  -0.08847   0.00360  21.75009   0.04058  89.24814           0.00           0.00     0.00000     0.00000     0.00000     0.00000     0.00000     0.00000     0.00000
    28      454.66766       47.78535    -7     7    -9  -0.00095   0.01864   0.00059  19.88983   0.04053 100.53920        4709.00       11677.51     1.39565     1.72564   168.88387     0.18472     0.00000    27.89775    27.89775
    33      971.54059       85.64222   -11     5    -7  -0.34740  -0.32841   0.01573  21.19172   0.03885  97.70516         742.00        2891.51     1.45386     1.70354   101.06610     0.12528     0.00000   971.97375   971.97375
latticeparameters=   0.54325   0.54483   0.54093  89.94763  90.19282  90.25732
dpsx, dpsy: 179.00000 168.38699
dd, xcent, ycent:      150.57201      540.60303      212.87601
pitch,yaw,roll:  -0.22645   0.61642   0.00000
dev1, dev2, pixdev:   0.01230   0.01206   0.25513
deviatoric strain in crystal reference u1 u2 u3 (*10^3)
   0.45747  -2.25316  -1.67628
  -2.25316   3.36590   0.44775
  -1.67628   0.44775  -3.81033
deviatoric strain in sample reference X Y Z (*10^3)
  -0.26391  -0.87362   0.49528
  -0.87362   4.61295   0.17956
   0.49528   0.17956  -4.33600
deviatoric principal strains (*10^3):   4.76566  -0.34824  -4.40438
deviatoric strain principal axes in sample reference:
  -0.17015   0.98537   0.01018
   0.97741   0.16745   0.12893
  -0.12534  -0.03189   0.99160
deviatoric stress in crystal reference u1 u2 u3 (MPa)
       47.35811     -358.29712     -266.56171
     -358.29712      343.14502       71.20070
     -266.56171       71.20070     -386.67725
deviatoric stress in sample reference X Y Z (MPa)
      -38.69626     -200.39207      -26.81560
     -200.39207      565.94379       22.37687
      -26.81560       22.37687     -523.42169
deviatoric principal stresses (MPa):      627.06757      -98.21418     -525.02753
deviatoric stress principal axes in sample reference:
       -0.28907        0.95697        0.02535
       -0.95598       -0.28996        0.04503
        0.05044       -0.01122        0.99866
total strain in sample reference X Y Z (*10^3)
   1.51935  -0.87362   0.49528
  -0.87362   6.39620   0.17956
   0.49528   0.17956  -2.55275
total principal strains (*10^3):   6.54892   1.43502  -2.62113
total strain principal axes in sample reference:
  -0.17015   0.98537   0.01018
   0.97741   0.16745   0.12893
  -0.12534  -0.03189   0.99160
total stress in crystal reference u1 u2 u3 (MPa)
      570.77979     -358.29712     -266.56171
     -358.29712      866.56671       71.20070
     -266.56171       71.20070      136.74442
total stress in sample reference X Y Z (MPa)
      484.72543     -200.39207      -26.81560
     -200.39207     1089.36548       22.37687
      -26.81560       22.37687        0.00000
total principal stresses (MPa):     1150.48926      425.20746       -1.60581
total stress principal axes in sample reference:
       -0.28907        0.95697        0.02535
       -0.95598       -0.28996        0.04503
        0.05044       -0.01122        0.99866
dilatational strain (*10^-3):        1.78326
hydrostatic stress (MPa):      524.69696
Von Mises stress (MPa):     1008.84247
equivalent strain (*10^-3):        5.30605
equivalent stress (MPa):     1008.84247
maximum resolved shear stress:       17.23304
coordinates of a, b, c in X, Y, Z
   0.44443  -0.20245   0.23851
   0.19254   0.50579   0.06497
  -0.24572   0.03227   0.48110
coordinates of a*, b*, c* in X, Y, Z
   1.50608  -0.67797   0.81471
   0.65611   1.70076   0.22103
  -0.83527   0.10643   1.64672
