\\vmware-host\Shared Folders\Desktop\SiHyperlaueFinal_shielded_results\results_00029.STR
Number of grains:       1
Grain no:       1   Grainlist file index:       1    Number of peaks:      33
no   x(exp)  y(exp)  h  k  l xdev  ydev  angdev  energy  dspace  twotheta  intens   integr  xwidth   ywidth  tilt  rfactor   pearson  xcentroid  ycentroid
     2      392.62112      871.98785    -2     4    -2  -0.32959  -0.11290   0.01912  12.44799   0.11105  53.29174       58460.00      202518.42     1.80366     2.06377   178.05896     0.21510     0.00000   746.61359   746.61359
     5      746.29498      951.29675    -3     3    -1  -0.33458   0.53041   0.02162  11.59394   0.12490  50.69570       48691.00      126787.42     1.67890     1.85237   104.74273     0.19888     0.00000  1026.74170  1026.74170
    13      991.66693      299.62524    -4     2    -2   0.10964  -0.03582   0.00431   8.25876   0.11084  85.25683       48881.00       85334.42     1.23445     1.56952   179.12971     0.22914     0.00000   282.86633   282.86633
     3      546.01990      225.15221    -3     3    -3   0.12638   0.19409   0.00868   8.45286   0.10446  89.18947       39069.00       58766.42     1.22197     1.23790   175.99057     0.18206     0.00000   991.99817   991.99817
     6     1026.42200      909.53937    -5     3    -1  -0.28783   0.26902   0.01441  14.49379   0.09197  55.43183       46261.00      123838.42     1.60687     1.94876   105.11865     0.24966     0.00000   925.33209   925.33209
     7      924.97003      683.06561    -6     4    -2   0.09471   0.01776   0.00440  16.08325   0.07268  64.06006        1036.00        2255.42     1.16459     1.45727   178.45299     0.07409     0.00000    62.01750    62.01750
    36       61.79999      407.68860    -1     3    -3   0.24354   0.28875   0.01286   7.85982   0.12446  78.64973           0.00           0.00     0.00000     0.00000     0.00000     0.00000     0.00000     0.00000     0.00000
     4      426.61041      666.12939    -3     5    -3   0.45788  -0.13044   0.02527  14.35995   0.08292  62.75080       80917.00      264488.41     1.78237     1.87314     2.16442     0.23200     0.00000   546.37061   546.37061
    14      648.66693      500.25208    -6     6    -4   0.15040   0.01337   0.00784  18.19167   0.05795  72.04315       14663.00       26177.42     1.23508     1.44483     5.30932     0.19586     0.00000   258.90472   258.90472
     8      668.66693      570.52185    -5     5    -3   0.09163  -0.03265   0.00496  15.64207   0.07079  68.09068       49164.00      221446.42     1.89843     2.72376   175.24059     0.30561     0.00000   426.81854   426.81854
     9      868.06921      257.34323    -5     3    -3   0.10079   0.18539   0.00702  10.82877   0.08280  87.48509       25666.00       51624.42     1.09005     1.85089     0.01787     0.19557     0.00000   649.01239   649.01239
    11      331.58508      270.36670    -4     6    -6  -0.50041  -0.04002   0.02264  15.68251   0.05785  86.21125       33053.00       87803.42     1.64127     1.93254   118.09314     0.22519     0.00000   868.37738   868.37738
    10      282.60791      288.46365    -3     5    -5  -0.42823  -0.02895   0.01902  12.97662   0.07064  85.10124       63987.00       93492.42     1.08428     1.49402   179.99995     0.19249     0.00000   668.99829   668.99829
    19      258.60864      619.59460    -3     7    -5  -0.05839  -0.38828   0.01078  19.09116   0.05964  65.98091       23877.00       47283.42     1.24224     1.70267     6.93474     0.23848     0.00000   129.68990   129.68990
    17      858.85291      567.53455    -7     5    -3   0.16988  -0.26530   0.01108  18.24968   0.05968  69.39012        8671.00       21946.42     1.08752     1.95297   179.93159     0.30055     0.00000   464.01465   464.01465
    31      474.96451      454.84424    -6     8    -6   0.06395   0.05987   0.00381  21.96875   0.04659  74.55549         587.00        2399.42     1.23528     1.93108     6.63078     0.10656     0.00000   699.02679   699.02679
    20      463.66888      498.17810    -5     7    -5   0.34446  -0.13461   0.01842  19.31532   0.05462  71.98143       15271.00       31330.42     1.17494     1.73972   177.53693     0.22496     0.00000   439.07983   439.07983
    22      721.83435      228.64561    -8     6    -6   0.06481   0.03771   0.00314  18.98047   0.04655  89.11374       26403.00       39750.42     1.17323     1.29597   178.87477     0.20452     0.00000   753.85712   753.85712
    15      129.37048       39.61821    -3     5    -7  -0.21216   0.21828   0.00990  13.62010   0.05948  99.85764       16437.00       34829.42     1.44148     1.58291    41.51054     0.22614     0.00000   859.19763   859.19763
    18      438.70163       20.97652    -6     6    -8   0.42291   0.29914   0.01933  17.13958   0.04649 102.16022       10370.00       20168.42     1.22501     1.49352   177.70767     0.21601     0.00000   722.15393   722.15393
    30     1012.67328      601.60236    -9     5    -3   0.02585  -0.15764   0.00419  21.60255   0.05069  68.95787        5803.00       10080.42     1.12574     1.35755   176.52773     0.15395     0.00000   261.99316   261.99316
    16      753.58386      232.69846    -7     5    -5  -0.32507   0.21487   0.01582  16.22818   0.05456  88.87347        1051.00        3433.42     1.53300     1.71446   178.54532     0.11532     0.00000   475.03387   475.03387
    21      145.60342      355.19476    -3     7    -7  -0.05247  -0.03830   0.00249  18.13781   0.05245  81.33006        1475.00        3712.42     1.30772     1.47597   177.63046     0.10911     0.00000  1013.01886  1013.01886
    23      364.75015      259.68622    -5     7    -7  -0.04812  -0.08191   0.00344  18.42402   0.04893  86.88856        7851.00       20610.42     1.26508     1.89498   179.15675     0.18244     0.00000   145.90726   145.90726
    29      784.11279       52.57571   -10     6    -8  -0.02549  -0.10535   0.00340  21.07628   0.03835 100.15043        4597.00       12425.42     1.44832     1.77773    88.49552     0.21831     0.00000   823.14600   823.14600
    32      300.67776       92.98547    -6     8   -10  -0.07246   0.01943   0.00298  21.53338   0.03834  97.34198        3052.00        6319.42     1.08178     1.47612   178.71748     0.15745     0.00000   455.00305   455.00305
    24      919.91223      273.34140    -9     5    -5   0.11201  -0.10345   0.00547  19.04917   0.04744  86.63021       11003.00       18164.42     1.20114     1.29597     2.60432     0.18534     0.00000   365.12125   365.12125
    26       27.56456      162.41109    -3     7    -9   0.31651   0.04219   0.01069  18.66338   0.04597  92.52954         896.00        2772.42     1.12142     1.76933   175.94644     0.11180     0.00000   301.00775   301.00775
    25      822.85022       31.42773    -9     5    -7   0.19452  -0.16780   0.00863  18.39863   0.04356 101.32885         979.00        4158.42     1.50607     1.82219   166.58615     0.15155     0.00000   784.08344   784.08344
    27      261.68094       78.66022    -5     7    -9  -0.08065  -0.05348   0.00349  18.84916   0.04354  98.10727        4237.00       12700.42     1.62803     1.79596    17.06253     0.19826     0.00000   920.15002   920.15002
    34      698.71045      226.39542    -9     7    -7   0.07645  -0.13565   0.00554  21.74967   0.04058  89.24915         522.00        2764.24     1.23885     2.33164     5.66252     0.52932     0.00000   615.84363   615.84363
    28      454.66446       47.75193    -7     7    -9   0.00017   0.03714   0.00116  19.88946   0.04053 100.54013        4230.00       10810.42     1.41822     1.76421   169.10104     0.17434     0.00000    27.90852    27.90852
    33      971.54297       85.57738   -11     5    -7  -0.34854  -0.28768   0.01503  21.19142   0.03885  97.70655         710.00        2742.42     1.39884     1.55679    17.59927     0.12447     0.00000   971.96893   971.96893
latticeparameters=   0.54324   0.54484   0.54093  89.94934  90.19327  90.25723
dpsx, dpsy: 179.00000 168.38699
dd, xcent, ycent:      150.57201      540.60303      212.87601
pitch,yaw,roll:  -0.22645   0.61642   0.00000
dev1, dev2, pixdev:   0.01232   0.01211   0.25705
deviatoric strain in crystal reference u1 u2 u3 (*10^3)
   0.45085  -2.25235  -1.68012
  -2.25235   3.38467   0.43284
  -1.68012   0.43284  -3.82238
deviatoric strain in sample reference X Y Z (*10^3)
  -0.26029  -0.85949   0.49287
  -0.85949   4.62611   0.17116
   0.49287   0.17116  -4.35268
deviatoric principal strains (*10^3):   4.77369  -0.34106  -4.41949
deviatoric strain principal axes in sample reference:
  -0.16740   0.98584   0.00945
   0.97808   0.16486   0.12720
  -0.12384  -0.03053   0.99183
deviatoric stress in crystal reference u1 u2 u3 (MPa)
       46.69210     -358.16837     -267.17276
     -358.16837      345.06107       68.82974
     -267.17276       68.82974     -387.89612
deviatoric stress in sample reference X Y Z (MPa)
      -37.85385     -198.63379      -27.38942
     -198.63379      567.17517       20.89351
      -27.38942       20.89351     -525.46423
deviatoric principal stresses (MPa):      627.23285      -96.28393     -527.09186
deviatoric stress principal axes in sample reference:
       -0.28700        0.95763        0.02418
       -0.95652       -0.28785        0.04703
        0.05200       -0.00963        0.99860
total strain in sample reference X Y Z (*10^3)
   1.52993  -0.85949   0.49287
  -0.85949   6.41632   0.17116
   0.49287   0.17116  -2.56246
total principal strains (*10^3):   6.56391   1.44915  -2.62927
total strain principal axes in sample reference:
  -0.16740   0.98584   0.00945
   0.97808   0.16486   0.12720
  -0.12384  -0.03053   0.99183
total stress in crystal reference u1 u2 u3 (MPa)
      572.15631     -358.16837     -267.17276
     -358.16837      870.52533       68.82974
     -267.17276       68.82974      137.56815
total stress in sample reference X Y Z (MPa)
      487.61041     -198.63379      -27.38942
     -198.63379     1092.63940       20.89351
      -27.38942       20.89351        0.00000
total principal stresses (MPa):     1152.69702      429.18033       -1.62759
total stress principal axes in sample reference:
       -0.28700        0.95763        0.02418
       -0.95652       -0.28785        0.04703
        0.05200       -0.00963        0.99860
dilatational strain (*10^-3):        1.79022
hydrostatic stress (MPa):      526.74994
Von Mises stress (MPa):     1010.33099
equivalent strain (*10^-3):        5.31891
equivalent stress (MPa):     1010.33099
maximum resolved shear stress:       15.46833
coordinates of a, b, c in X, Y, Z
   0.44442  -0.20244   0.23852
   0.19254   0.50580   0.06497
  -0.24573   0.03226   0.48108
coordinates of a*, b*, c* in X, Y, Z
   1.50607  -0.67796   0.81474
   0.65607   1.70073   0.22107
  -0.83530   0.10643   1.64672
