\\vmware-host\Shared Folders\Desktop\SiHyperlaueFinal_shielded_results\results_00082.STR
Number of grains:       1
Grain no:       1   Grainlist file index:       1    Number of peaks:      33
no   x(exp)  y(exp)  h  k  l xdev  ydev  angdev  energy  dspace  twotheta  intens   integr  xwidth   ywidth  tilt  rfactor   pearson  xcentroid  ycentroid
     2      392.63287      871.97437    -2     4    -2  -0.31875  -0.11998   0.01854  12.44792   0.11105  53.29250       42481.00      145581.47     1.75264     2.06051   178.59174     0.20885     0.00000   746.64941   746.64941
     5      746.34204      951.24664    -3     3    -1  -0.35427   0.52878   0.02258  11.59351   0.12490  50.69788       41492.00      106315.48     1.73431     1.77168   129.57893     0.21066     0.00000  1026.76697  1026.76697
    13      991.67920      299.61600    -4     2    -2   0.13081  -0.06725   0.00537   8.25854   0.11084  85.25927       39366.00       67933.48     1.22301     1.56050   179.36543     0.22106     0.00000   282.87820   282.87820
     3      546.05975      225.14006    -3     3    -3   0.10005   0.19006   0.00779   8.45276   0.10446  89.19053       30383.00       47212.47     1.24544     1.24562   103.42942     0.18726     0.00000   992.02203   992.02203
     7     1026.45435      909.49005    -5     3    -1  -0.27998   0.26062   0.01400  14.49312   0.09197  55.43461         426.00        1495.47     1.24578     1.59592     4.06838     0.07266     0.00000    62.00608    62.00608
     6      925.01154      683.01483    -6     4    -2   0.08600   0.02411   0.00400  16.08269   0.07268  64.06254       40583.00      107427.48     1.70685     1.86119    12.86686     0.24863     0.00000   925.36035   925.36035
    36       61.86225      407.70996    -1     3    -3   0.20089   0.28169   0.01145   7.85991   0.12446  78.64884           0.00           0.00     0.00000     0.00000     0.00000     0.00000     0.00000     0.00000     0.00000
     4      426.63474      666.11237    -3     5    -3   0.45360  -0.12919   0.02503  14.35986   0.08292  62.75155       57033.00      194350.47     1.81812     1.87302    19.66358     0.22928     0.00000   546.38379   546.38379
    14      648.66699      500.21771    -6     6    -4   0.17073   0.02208   0.00891  18.19134   0.05795  72.04472       13264.00       23410.47     1.20615     1.46829     3.91194     0.18541     0.00000   258.92374   258.92374
     8      668.66687      570.49457    -5     5    -3   0.11346  -0.03404   0.00611  15.64175   0.07079  68.09236       38663.00      185209.47     1.90378     2.84724   175.20432     0.30847     0.00000   426.85141   426.85141
    11      868.11475      257.28024    -5     3    -3   0.08069   0.21358   0.00732  10.82851   0.08280  87.48726       20617.00       59482.47     1.78613     1.88495   170.07404     0.22218     0.00000   868.37268   868.37268
    10      331.59207      270.35431    -4     6    -6  -0.49472  -0.03008   0.02237  15.68248   0.05785  86.21140       53650.00       80462.48     1.08484     1.54403     0.05786     0.19346     0.00000   669.00464   669.00464
     9      282.61234      288.47000    -3     5    -5  -0.41938  -0.03462   0.01864  12.97663   0.07064  85.10119       21943.00       46051.47     1.09081     1.86944     0.03522     0.19170     0.00000   649.01361   649.01361
    19      258.61978      619.58423    -3     7    -5  -0.04904  -0.38022   0.01042  19.09127   0.05964  65.98090       19312.00       38115.47     1.23411     1.69879     6.70066     0.22985     0.00000   129.71069   129.71069
    17      858.87598      567.50470    -7     5    -3   0.17532  -0.27356   0.01143  18.24914   0.05968  69.39238        8303.00       20450.47     1.08838     1.94509     0.02122     0.30387     0.00000   464.00900   464.00900
    31      475.02750      454.84067    -6     8    -6   0.01798   0.04950   0.00178  21.96858   0.04659  74.55633         476.00        1932.47     1.30118     2.00735     7.15650     0.08853     0.00000   699.03064   699.03064
    20      463.66949      498.14810    -5     7    -5   0.36151  -0.11865   0.01922  19.31518   0.05462  71.98224       13983.00       27961.47     1.17419     1.71258   177.62244     0.21782     0.00000   439.07849   439.07849
    22      721.86060      228.63547    -8     6    -6   0.05699   0.02103   0.00263  18.98012   0.04655  89.11547       23575.00       34480.47     1.16131     1.27190   179.22047     0.19187     0.00000   753.86426   753.86426
    15      129.37355       39.62182    -3     5    -7  -0.20857   0.22621   0.00996  13.62012   0.05948  99.85702       14171.00       31509.47     1.49123     1.62332    16.44005     0.22343     0.00000   859.19855   859.19855
    18      438.70123       20.95613    -6     6    -8   0.42991   0.30942   0.01972  17.13942   0.04649 102.16086        9161.00       18584.47     1.24333     1.54456   177.17365     0.21406     0.00000   722.16119   722.16119
    30     1012.70538      601.56268    -9     5    -3   0.03117  -0.16252   0.00439  21.60180   0.05069  68.96047        5235.00        9314.47     1.11942     1.33994   178.68520     0.15678     0.00000   262.01801   262.01801
    16      753.59320      232.69180    -7     5    -5  -0.31470   0.19292   0.01512  16.22786   0.05456  88.87531         941.00        3237.47     1.53324     1.79454   172.86140     0.10888     0.00000   475.05966   475.05966
    21      145.61594      355.20889    -3     7    -7  -0.04847  -0.04316   0.00242  18.13794   0.05245  81.32947        1242.00        3344.47     1.32548     1.58254   171.23227     0.10517     0.00000  1013.01367  1013.01367
    23      364.75626      259.68527    -5     7    -7  -0.04180  -0.08556   0.00335  18.42396   0.04893  86.88886        7403.00       19072.47     1.24008     1.89506   179.15878     0.17839     0.00000   145.93152   145.93152
    29      784.14032       52.54349   -10     6    -8  -0.03509  -0.10534   0.00354  21.07586   0.03835 100.15235        3858.00       11167.47     1.48120     1.88340    45.26204     0.20684     0.00000   823.13855   823.13855
    32      300.68082       93.02238    -6     8   -10  -0.06782  -0.01767   0.00276  21.53331   0.03834  97.34201        2888.00        5970.47     1.08052     1.49769   179.52505     0.14993     0.00000   454.97964   454.97964
    24      919.92816      273.26456    -9     5    -5   0.12464  -0.06398   0.00536  19.04869   0.04744  86.63250        9997.00       16773.47     1.20329     1.31194     1.29401     0.18353     0.00000   365.09512   365.09512
    26       27.56110      162.41708    -3     7    -9   0.33266   0.05465   0.01127  18.66351   0.04597  92.52852         819.00        2519.47     1.13453     1.82475   177.51582     0.09875     0.00000   300.99780   300.99780
    25      822.87817       31.36711    -9     5    -7   0.18611  -0.14223   0.00798  18.39825   0.04356 101.33089         898.00        3822.47     1.57109     1.93986    95.30574     0.13663     0.00000   784.09314   784.09314
    27      261.68033       78.66219    -5     7    -9  -0.07280  -0.05301   0.00321  18.84912   0.04354  98.10714        3587.00       11576.47     1.65566     1.86782    20.05428     0.18702     0.00000   920.14465   920.14465
    35      698.74188      226.30801    -9     7    -7   0.06259  -0.07371   0.00367  21.74929   0.04058  89.25080           0.00           0.00     0.00000     0.00000     0.00000     0.00000     0.00000     0.00000     0.00000
    28      454.66714       47.76088    -7     7    -9   0.00508   0.01728   0.00058  19.88927   0.04053 100.54083        3862.00        9934.47     1.41532     1.74846   169.99095     0.17230     0.00000    27.91051    27.91051
    33      971.57440       85.58195   -11     5    -7  -0.35040  -0.33486   0.01593  21.19091   0.03885  97.70892         654.00        2476.47     1.32230     1.70369    13.02886     0.11279     0.00000   971.96985   971.96985
latticeparameters=   0.54325   0.54484   0.54094  89.94879  90.19259  90.25755
dpsx, dpsy: 179.00000 168.38699
dd, xcent, ycent:      150.57201      540.60303      212.87601
pitch,yaw,roll:  -0.22645   0.61642   0.00000
dev1, dev2, pixdev:   0.01226   0.01209   0.25394
deviatoric strain in crystal reference u1 u2 u3 (*10^3)
   0.45136  -2.25514  -1.67428
  -2.25514   3.37018   0.43768
  -1.67428   0.43768  -3.80850
deviatoric strain in sample reference X Y Z (*10^3)
  -0.26643  -0.86741   0.49063
  -0.86741   4.61592   0.17122
   0.49063   0.17122  -4.33645
deviatoric principal strains (*10^3):   4.76625  -0.35007  -4.40314
deviatoric strain principal axes in sample reference:
  -0.16895   0.98558   0.00943
   0.97778   0.16639   0.12749
  -0.12408  -0.03076   0.99180
deviatoric stress in crystal reference u1 u2 u3 (MPa)
       46.73687     -358.61221     -266.24356
     -358.61221      343.58087       69.60066
     -266.24356       69.60066     -386.49054
deviatoric stress in sample reference X Y Z (MPa)
      -38.90075     -199.58430      -27.40281
     -199.58430      566.24835       20.95986
      -27.40281       20.95986     -523.52039
deviatoric principal stresses (MPa):      626.82434      -97.83904     -525.15808
deviatoric stress principal axes in sample reference:
       -0.28800        0.95732        0.02430
       -0.95620       -0.28887        0.04733
        0.05233       -0.00961        0.99858
total strain in sample reference X Y Z (*10^3)
   1.51716  -0.86741   0.49063
  -0.86741   6.39951   0.17122
   0.49063   0.17122  -2.55285
total principal strains (*10^3):   6.54984   1.43352  -2.61955
total strain principal axes in sample reference:
  -0.16895   0.98558   0.00943
   0.97778   0.16639   0.12749
  -0.12408  -0.03076   0.99180
total stress in crystal reference u1 u2 u3 (MPa)
      570.25726     -358.61221     -266.24356
     -358.61221      867.10126       69.60066
     -266.24356       69.60066      137.02985
total stress in sample reference X Y Z (MPa)
      484.61963     -199.58430      -27.40281
     -199.58430     1089.76868       20.95986
      -27.40281       20.95986        0.00000
total principal stresses (MPa):     1150.34485      425.68134       -1.63771
total stress principal axes in sample reference:
       -0.28801        0.95732        0.02430
       -0.95620       -0.28887        0.04733
        0.05233       -0.00961        0.99858
dilatational strain (*10^-3):        1.78359
hydrostatic stress (MPa):      524.79614
Von Mises stress (MPa):     1008.66302
equivalent strain (*10^-3):        5.30580
equivalent stress (MPa):     1008.66302
maximum resolved shear stress:       16.01983
coordinates of a, b, c in X, Y, Z
   0.44442  -0.20242   0.23853
   0.19251   0.50580   0.06497
  -0.24574   0.03226   0.48109
coordinates of a*, b*, c* in X, Y, Z
   1.50608  -0.67787   0.81478
   0.65600   1.70078   0.22105
  -0.83534   0.10643   1.64667
