\\vmware-host\Shared Folders\Desktop\SiHyperlaueFinal_shielded_results\results_00116.STR
Number of grains:       1
Grain no:       1   Grainlist file index:       1    Number of peaks:      32
no   x(exp)  y(exp)  h  k  l xdev  ydev  angdev  energy  dspace  twotheta  intens   integr  xwidth   ywidth  tilt  rfactor   pearson  xcentroid  ycentroid
     2      392.64163      872.01495    -2     4    -2  -0.29903  -0.12297   0.01744  12.45012   0.11103  53.29080       28651.00       89683.30     1.68353     2.03410   178.47276     0.21207     0.00000   746.68420   746.68420
     5      746.39020      951.30054    -3     3    -1  -0.38878   0.50857   0.02416  11.59477   0.12489  50.69670       32465.00       80610.30     1.56171     1.82915   167.97476     0.22478     0.00000  1026.78015  1026.78015
    14      991.68506      299.61847    -4     2    -2   0.14616  -0.10726   0.00641   8.25872   0.11083  85.26149       11858.00       27866.30     1.50250     1.67974    57.93021     0.21963     0.00000   859.20416   859.20416
     4      546.07117      225.16238    -3     3    -3   0.08525   0.17911   0.00709   8.45368   0.10445  89.18979       38714.00      137843.30     1.82644     1.87909    21.91926     0.22590     0.00000   546.38171   546.38171
     7     1026.48743      909.52600    -5     3    -1  -0.27772   0.24486   0.01377  14.49381   0.09196  55.43431       30438.00      146898.30     1.90748     2.92040   175.24341     0.31163     0.00000   426.88477   426.88477
     6      925.01898      683.01123    -6     4    -2   0.09913   0.02920   0.00461  16.08351   0.07267  64.06267       33436.00       88061.30     1.68239     1.89084   154.27727     0.24431     0.00000   925.34894   925.34894
     3      426.65057      666.12573    -3     5    -3   0.45786  -0.10820   0.02522  14.36219   0.08291  62.74973       24362.00       37869.30     1.23890     1.24275   155.86977     0.18381     0.00000   992.02173   992.02173
    12      648.66718      500.21298    -6     6    -4   0.17489   0.03960   0.00917  18.19322   0.05794  72.04398       30808.00       51270.30     1.21363     1.50426   179.60347     0.21059     0.00000   282.89481   282.89481
     8      668.66711      570.50018    -5     5    -3   0.11932  -0.02508   0.00638  15.64336   0.07078  68.09157       19217.00       40870.30     1.08920     1.87399     0.03057     0.19083     0.00000   649.00446   649.00446
    13      868.11841      257.28421    -5     3    -3   0.08308   0.18258   0.00654  10.82897   0.08279  87.48892       12119.00       21062.30     1.19417     1.44954     3.27452     0.17756     0.00000   258.93835   258.93835
     9      331.59735      270.38184    -4     6    -6  -0.48553  -0.02366   0.02194  15.68487   0.05784  86.20924       45213.00       67696.30     1.08457     1.53074   179.93497     0.19193     0.00000   669.00305   669.00305
    10      282.61612      288.49689    -3     5    -5  -0.40194  -0.02406   0.01784  12.97871   0.07063  85.09884       13128.00       38039.30     1.74013     1.92922    70.76999     0.20279     0.00000   868.34045   868.34045
    19      258.62454      619.59796    -3     7    -5  -0.01486  -0.35809   0.00944  19.09477   0.05963  65.97877       12110.00       24337.30     1.17658     1.71895   177.59566     0.20986     0.00000   439.06683   439.06683
    17      858.90723      567.50244    -7     5    -3   0.15690  -0.27422   0.01079  18.25021   0.05967  69.39264        8249.00       16671.30     1.22359     1.55411   178.69731     0.20521     0.00000   722.16095   722.16095
    31      475.03351      454.82672    -6     8    -6   0.02157   0.08997   0.00297  21.97165   0.04658  74.55471        2575.00        5428.30     1.08116     1.52126     0.45229     0.14310     0.00000   454.99609   454.99609
    20      463.67075      498.14374    -5     7    -5   0.37214  -0.08576   0.01964  19.31797   0.05461  71.98054        1118.00        3169.30     1.36116     1.56720   170.84628     0.10627     0.00000  1013.00891  1013.00891
    21      721.86609      228.63789    -8     6    -6   0.04789   0.00808   0.00215  18.98147   0.04655  89.11614       20153.00       29319.30     1.15412     1.26222   179.04884     0.18550     0.00000   753.88477   753.88477
    15      129.38359       39.63054    -3     5    -7  -0.19150   0.26772   0.01041  13.62229   0.05947  99.85427         835.00        2892.30     1.43569     1.80198     0.00000     0.10248     0.00000   475.02875   475.02875
    18      438.70193       20.96073    -6     6    -8   0.42007   0.32138   0.01956  17.14142   0.04648 102.15981       15660.00       29916.30     1.21297     1.68595     5.73681     0.20945     0.00000   129.74117   129.74117
    30     1012.71533      601.54510    -9     5    -3   0.05095  -0.15621   0.00463  21.60246   0.05069  68.96132         426.00        1990.30     1.30703     2.00209   172.94006     0.09527     0.00000   699.04053   699.04053
    16      753.59674      232.68912    -7     5    -5  -0.32053   0.18128   0.01521  16.22891   0.05456  88.87621        7374.00       17936.30     1.09185     1.93124     0.09304     0.30136     0.00000   464.02939   464.02939
    22      145.61716      355.21387    -3     7    -7  -0.00435  -0.00600   0.00026  18.14120   0.05244  81.32688        6486.00       16638.30     1.23923     1.90027   179.33041     0.16821     0.00000   145.92368   145.92368
    23      364.76633      259.68988    -5     7    -7  -0.04146  -0.05908   0.00269  18.42665   0.04893  86.88687        8679.00       14881.30     1.19998     1.33437   179.34395     0.18124     0.00000   365.11038   365.11038
    29      784.13184       52.49448   -10     6    -8  -0.03410  -0.08793   0.00304  21.07698   0.03835 100.15430        4672.00        8264.30     1.12008     1.33238   178.76218     0.14769     0.00000   262.00412   262.00412
    33      300.68219       92.99644    -6     8   -10  -0.06179   0.04289   0.00284  21.53640   0.03833  97.33989         610.00        2434.22     1.36405     1.79847    16.01220     0.11308     0.00000   971.97046   971.97046
    24      919.94366      273.24533    -9     5    -5   0.12077  -0.07668   0.00537  19.04932   0.04744  86.63444         791.00        3577.30     1.66111     1.93560   107.97640     0.12657     0.00000   784.09485   784.09485
    26       27.57035      162.44812    -3     7    -9   0.37824   0.07644   0.01287  18.66677   0.04596  92.52565        3035.00       10323.30     1.67883     1.88008    15.30867     0.17860     0.00000   920.15259   920.15259
    25      822.88257       31.33644    -9     5    -7   0.17624  -0.15083   0.00780  18.39910   0.04356 101.33325         740.00        2374.30     1.11392     1.79215   179.25056     0.10290     0.00000   300.97873   300.97873
    27      261.68060       78.66057    -5     7    -9  -0.06206  -0.01309   0.00243  18.85190   0.04354  98.10485        3596.00        9029.30     1.41168     1.68431   167.53349     0.16981     0.00000    27.91622    27.91622
    35      698.73029      226.27954    -9     7    -7   0.06986  -0.05293   0.00357  21.75094   0.04057  89.25129           0.00           0.00     0.00000     0.00000     0.00000     0.00000     0.00000     0.00000     0.00000
    28      454.66663       47.77339    -7     7    -9  -0.00285   0.02033   0.00065  19.89157   0.04052 100.53984        3331.00       10153.30     1.50151     1.89262    95.01084     0.20496     0.00000   823.13696   823.13696
    32      971.56744       85.55205   -11     5    -7  -0.33062  -0.36081   0.01590  21.19139   0.03885  97.71210         627.00        2408.30     1.33599     1.76049    12.43458     0.10990     0.00000   971.98315   971.98315
latticeparameters=   0.54330   0.54479   0.54092  89.94684  90.19096  90.25866
dpsx, dpsy: 179.00000 168.38699
dd, xcent, ycent:      150.57201      540.60303      212.87601
pitch,yaw,roll:  -0.22645   0.61642   0.00000
dev1, dev2, pixdev:   0.01230   0.01211   0.24802
deviatoric strain in crystal reference u1 u2 u3 (*10^3)
   0.55847  -2.26469  -1.66004
  -2.26469   3.28953   0.45463
  -1.66004   0.45463  -3.83507
deviatoric strain in sample reference X Y Z (*10^3)
  -0.23186  -0.93616   0.54587
  -0.93616   4.56908   0.14953
   0.54587   0.14953  -4.32429
deviatoric principal strains (*10^3):   4.74540  -0.32832  -4.40415
deviatoric strain principal axes in sample reference:
  -0.18430   0.98286   0.00511
   0.97335   0.18179   0.13977
  -0.13644  -0.03074   0.99017
deviatoric stress in crystal reference u1 u2 u3 (MPa)
       57.62280     -360.13046     -263.98013
     -360.13046      335.37183       72.29493
     -263.98013       72.29493     -389.20020
deviatoric stress in sample reference X Y Z (MPa)
      -36.60108     -207.14056      -21.23605
     -207.14056      561.89954       19.10345
      -21.23605       19.10345     -521.50403
deviatoric principal stresses (MPa):      627.12250     -100.79456     -522.53351
deviatoric stress principal axes in sample reference:
       -0.29847        0.95418        0.02139
       -0.95361       -0.29907        0.03455
        0.03937       -0.01008        0.99917
total strain in sample reference X Y Z (*10^3)
   1.54487  -0.93616   0.54587
  -0.93616   6.34580   0.14953
   0.54587   0.14953  -2.54757
total principal strains (*10^3):   6.52212   1.44840  -2.62743
total strain principal axes in sample reference:
  -0.18430   0.98286   0.00511
   0.97335   0.18179   0.13977
  -0.13644  -0.03074   0.99017
total stress in crystal reference u1 u2 u3 (MPa)
      579.12683     -360.13046     -263.98013
     -360.13046      856.87585       72.29493
     -263.98013       72.29493      132.30383
total stress in sample reference X Y Z (MPa)
      484.90295     -207.14056      -21.23605
     -207.14056     1083.40356       19.10345
      -21.23605       19.10345        0.00000
total principal stresses (MPa):     1148.62646      420.70947       -1.02946
total stress principal axes in sample reference:
       -0.29847        0.95418        0.02139
       -0.95361       -0.29907        0.03455
        0.03937       -0.01008        0.99917
dilatational strain (*10^-3):        1.77672
hydrostatic stress (MPa):      522.76886
Von Mises stress (MPa):     1007.33209
equivalent strain (*10^-3):        5.29296
equivalent stress (MPa):     1007.33209
maximum resolved shear stress:       23.96941
coordinates of a, b, c in X, Y, Z
   0.44454  -0.20241   0.23859
   0.19245   0.50584   0.06496
  -0.24575   0.03225   0.48113
coordinates of a*, b*, c* in X, Y, Z
   1.50619  -0.67767   0.81476
   0.65597   1.70117   0.22103
  -0.83548   0.10637   1.64688
