\\vmware-host\Shared Folders\Desktop\SiHyperlaueFinal_shielded_results\results_00089.STR
Number of grains:       1
Grain no:       1   Grainlist file index:       1    Number of peaks:      33
no   x(exp)  y(exp)  h  k  l xdev  ydev  angdev  energy  dspace  twotheta  intens   integr  xwidth   ywidth  tilt  rfactor   pearson  xcentroid  ycentroid
     2      392.63568      871.97375    -2     4    -2  -0.32295  -0.09874   0.01869  12.44722   0.11105  53.29164       42126.00      140162.36     1.73069     2.04863   178.66635     0.20894     0.00000   746.65967   746.65967
     5      746.35883      951.25464    -3     3    -1  -0.36285   0.53095   0.02303  11.59300   0.12490  50.69756       40244.00      102285.35     1.59068     1.90922    91.11739     0.19665     0.00000  1026.77112  1026.77112
    13      991.68036      299.61325    -4     2    -2   0.12622  -0.06834   0.00522   8.25842   0.11084  85.25948       38715.00       66576.35     1.21654     1.56665   179.41376     0.21956     0.00000   282.88150   282.88150
     3      546.05750      225.14095    -3     3    -3   0.10702   0.18549   0.00787   8.45245   0.10446  89.19078       29179.00       45628.35     1.24663     1.25186    35.84622     0.18793     0.00000   992.02478   992.02478
     7     1026.45178      909.49335    -5     3    -1  -0.27262   0.24992   0.01360  14.49264   0.09197  55.43496         442.00        1480.35     1.19920     1.43686   177.09068     0.07607     0.00000    61.99224    61.99224
     6      925.00708      683.01001    -6     4    -2   0.09560   0.02419   0.00444  16.08216   0.07268  64.06282       39510.00      104039.35     1.62890     1.92896    99.36743     0.25740     0.00000   925.35437   925.35437
    36       61.80543      407.70853    -1     3    -3   0.24704   0.28509   0.01290   7.85946   0.12447  78.64879           0.00           0.00     0.00000     0.00000     0.00000     0.00000     0.00000     0.00000     0.00000
     4      426.63647      666.11414    -3     5    -3   0.45271  -0.12502   0.02497  14.35903   0.08292  62.75124       55767.00      188791.36     1.81583     1.87282    13.05081     0.22815     0.00000   546.38434   546.38434
    14      648.66724      500.21152    -6     6    -4   0.17629   0.02602   0.00920  18.19054   0.05795  72.04487       13149.00       23314.35     1.20908     1.47006     3.98746     0.18640     0.00000   258.92233   258.92233
     8      668.66699      570.49976    -5     5    -3   0.11954  -0.04040   0.00646  15.64105   0.07079  68.09245       37593.00      180773.36     1.90262     2.85906   175.59264     0.30664     0.00000   426.85468   426.85468
    11      868.12292      257.27966    -5     3    -3   0.07350   0.21178   0.00714  10.82831   0.08280  87.48741       19898.00       57977.35     1.80322     1.87264   115.73383     0.21565     0.00000   868.37872   868.37872
    10      331.59344      270.35516    -4     6    -6  -0.49509  -0.03526   0.02239  15.68172   0.05785  86.21167       52269.00       77950.35     1.08432     1.53202     0.11934     0.19395     0.00000   669.00208   669.00208
     9      282.61487      288.46573    -3     5    -5  -0.42245  -0.03433   0.01877  12.97597   0.07065  85.10144       21329.00       45263.35     1.09015     1.87141   179.97922     0.19393     0.00000   649.00348   649.00348
    19      258.61813      619.58838    -3     7    -5  -0.05288  -0.37672   0.01039  19.09011   0.05964  65.98053       19130.00       37073.35     1.23340     1.67346     6.93858     0.22851     0.00000   129.71156   129.71156
    17      858.89001      567.50537    -7     5    -3   0.16656  -0.27815   0.01120  18.24854   0.05968  69.39264        7988.00       19557.35     1.08871     1.94646     0.02663     0.29924     0.00000   464.01324   464.01324
    31      475.03326      454.83401    -6     8    -6   0.01531   0.05406   0.00184  21.96744   0.04659  74.55645         497.00        2237.35     1.27773     1.94141     2.61108     0.10587     0.00000   698.99030   698.99030
    20      463.67026      498.15604    -5     7    -5   0.36340  -0.12758   0.01936  19.31414   0.05462  71.98229       13171.00       26619.35     1.17501     1.71960   177.67799     0.21603     0.00000   439.07217   439.07217
    22      721.85547      228.63596    -8     6    -6   0.06619   0.01812   0.00301  18.97962   0.04655  89.11563       22683.00       33395.35     1.16338     1.26781   179.25166     0.19313     0.00000   753.88470   753.88470
    15      129.39091       39.62361    -3     5    -7  -0.22495   0.21978   0.01027  13.61957   0.05948  99.85729       13363.00       30389.35     1.49210     1.65885    47.45488     0.22142     0.00000   859.21259   859.21259
    18      438.70148       20.96188    -6     6    -8   0.43486   0.30178   0.01979  17.13892   0.04649 102.16099        8893.00       18037.35     1.23925     1.53182   177.92169     0.21346     0.00000   722.15485   722.15485
    30     1012.70288      601.56641    -9     5    -3   0.03490  -0.17413   0.00473  21.60124   0.05069  68.96087        5210.00        9016.35     1.11607     1.36295   177.21796     0.14558     0.00000   262.01706   262.01706
    16      753.59473      232.69220    -7     5    -5  -0.31263   0.19022   0.01500  16.22747   0.05456  88.87545         894.00        3088.35     1.52790     1.81249   173.76598     0.10460     0.00000   475.04446   475.04446
    21      145.61497      355.20285    -3     7    -7  -0.05372  -0.03841   0.00253  18.13693   0.05245  81.32957        1203.00        3276.35     1.35158     1.58319   172.00807     0.10238     0.00000  1013.01917  1013.01917
    23      364.76367      259.68686    -5     7    -7  -0.04730  -0.09159   0.00366  18.42310   0.04893  86.88914        7149.00       18469.35     1.23911     1.89663   179.15990     0.17554     0.00000   145.92776   145.92776
    29      784.17603       52.51164   -10     6    -8  -0.07017  -0.07134   0.00357  21.07559   0.03836 100.15222        3754.00       11118.35     1.50401     1.89698    81.11736     0.20042     0.00000   823.13397   823.13397
    32      300.68442       92.99794    -6     8   -10  -0.06849   0.00239   0.00275  21.53247   0.03834  97.34229        2806.00        5838.35     1.08053     1.50052     0.75411     0.14865     0.00000   455.01126   455.01126
    24      919.94055      273.27490    -9     5    -5   0.11158  -0.07711   0.00504  19.04837   0.04744  86.63267        9550.00       16192.35     1.20319     1.32866     1.76154     0.18257     0.00000   365.10361   365.10361
    26       27.58276      162.44814    -3     7    -9   0.30573   0.01945   0.01029  18.66262   0.04597  92.52875         848.00        2568.35     1.12948     1.82098   176.77940     0.10047     0.00000   301.01181   301.01181
    25      822.88715       31.35807    -9     5    -7   0.17601  -0.12982   0.00748  18.39807   0.04356 101.33069         828.00        3939.35     1.63903     1.91167    79.04741     0.14425     0.00000   784.07703   784.07703
    27      261.67798       78.66153    -5     7    -9  -0.06790  -0.05682   0.00311  18.84838   0.04354  98.10742        3463.00       11401.35     1.67283     1.85687    18.87349     0.18813     0.00000   920.15125   920.15125
    35      698.74799      226.30869    -9     7    -7   0.06082  -0.07694   0.00368  21.74869   0.04058  89.25097           0.00           0.00     0.00000     0.00000     0.00000     0.00000     0.00000     0.00000     0.00000
    28      454.66644       47.75342    -7     7    -9   0.01081   0.02248   0.00083  19.88868   0.04053 100.54098        4060.00        9802.35     1.37812     1.67466   167.03754     0.17442     0.00000    27.91425    27.91425
    33      971.52734       85.57150   -11     5    -7  -0.31066  -0.32187   0.01460  21.19080   0.03885  97.70880         604.00        2457.35     1.45236     1.63062    19.82269     0.11425     0.00000   971.97955   971.97955
latticeparameters=   0.54323   0.54487   0.54092  89.95029  90.19538  90.25876
dpsx, dpsy: 179.00000 168.38699
dd, xcent, ycent:      150.57201      540.60303      212.87601
pitch,yaw,roll:  -0.22645   0.61642   0.00000
dev1, dev2, pixdev:   0.01226   0.01209   0.25339
deviatoric strain in crystal reference u1 u2 u3 (*10^3)
   0.41616  -2.26583  -1.69850
  -2.26583   3.42644   0.42448
  -1.69850   0.42448  -3.82931
deviatoric strain in sample reference X Y Z (*10^3)
  -0.27119  -0.84406   0.46970
  -0.84406   4.66629   0.17522
   0.46970   0.17522  -4.38181
deviatoric principal strains (*10^3):   4.80760  -0.35144  -4.44286
deviatoric strain principal axes in sample reference:
  -0.16299   0.98657   0.01048
   0.97957   0.16055   0.12114
  -0.11783  -0.03001   0.99258
deviatoric stress in crystal reference u1 u2 u3 (MPa)
       43.17392     -360.31271     -270.09482
     -360.31271      349.31940       67.50095
     -270.09482       67.50095     -388.59122
deviatoric stress in sample reference X Y Z (MPa)
      -38.46476     -197.58250      -30.62872
     -197.58250      571.79572       20.95347
      -30.62872       20.95347     -529.42889
deviatoric principal stresses (MPa):      630.89471      -95.58711     -531.40552
deviatoric stress principal axes in sample reference:
       -0.28406        0.95848        0.02481
       -0.95701       -0.28502        0.05380
        0.05864       -0.00846        0.99824
total strain in sample reference X Y Z (*10^3)
   1.53254  -0.84406   0.46970
  -0.84406   6.47001   0.17522
   0.46970   0.17522  -2.57808
total principal strains (*10^3):   6.61132   1.45228  -2.63914
total strain principal axes in sample reference:
  -0.16299   0.98657   0.01048
   0.97957   0.16055   0.12114
  -0.11783  -0.03001   0.99258
total stress in crystal reference u1 u2 u3 (MPa)
      572.60278     -360.31271     -270.09482
     -360.31271      878.74829       67.50095
     -270.09482       67.50095      140.83766
total stress in sample reference X Y Z (MPa)
      490.96411     -197.58250      -30.62872
     -197.58250     1101.22461       20.95347
      -30.62872       20.95347        0.00000
total principal stresses (MPa):     1160.32361      433.84177       -1.97662
total stress principal axes in sample reference:
       -0.28406        0.95848        0.02481
       -0.95701       -0.28502        0.05380
        0.05864       -0.00846        0.99824
dilatational strain (*10^-3):        1.80372
hydrostatic stress (MPa):      530.72955
Von Mises stress (MPa):     1017.01898
equivalent strain (*10^-3):        5.35260
equivalent stress (MPa):     1017.01898
maximum resolved shear stress:       12.94838
coordinates of a, b, c in X, Y, Z
   0.44438  -0.20243   0.23850
   0.19252   0.50581   0.06499
  -0.24575   0.03224   0.48105
coordinates of a*, b*, c* in X, Y, Z
   1.50604  -0.67792   0.81482
   0.65598   1.70060   0.22115
  -0.83531   0.10637   1.64665
