\\vmware-host\Shared Folders\Desktop\SiHyperlaueFinal_shielded_results\results_00104.STR
Number of grains:       1
Grain no:       1   Grainlist file index:       1    Number of peaks:      32
no   x(exp)  y(exp)  h  k  l xdev  ydev  angdev  energy  dspace  twotheta  intens   integr  xwidth   ywidth  tilt  rfactor   pearson  xcentroid  ycentroid
     2      392.63922      871.98749    -2     4    -2  -0.29738  -0.11274   0.01730  12.44980   0.11103  53.29152       30038.00       96973.30     1.69578     2.04365   178.53278     0.21276     0.00000   746.67816   746.67816
     5      746.38226      951.27441    -3     3    -1  -0.38686   0.50790   0.02405  11.59459   0.12489  50.69768       33603.00       84217.30     1.68671     1.78185    82.78182     0.20948     0.00000  1026.77722  1026.77722
    14      991.68500      299.61713    -4     2    -2   0.13918  -0.09869   0.00606   8.25872   0.11083  85.26106       11763.00       27561.31     1.51618     1.67914    18.30667     0.21805     0.00000   859.19855   859.19855
     4      546.06647      225.14922    -3     3    -3   0.09314   0.19391   0.00770   8.45355   0.10445  89.18968       40320.00      140245.31     1.82333     1.87663    18.59704     0.22562     0.00000   546.37921   546.37921
     7     1026.46387      909.49109    -5     3    -1  -0.26995   0.25356   0.01352  14.49370   0.09196  55.43511       30446.00      148752.31     1.90689     2.90864   175.50365     0.30923     0.00000   426.88159   426.88159
     6      925.00861      683.00110    -6     4    -2   0.09974   0.02933   0.00464  16.08347   0.07267  64.06306       34315.00       90045.30     1.72693     1.81658   153.99937     0.24919     0.00000   925.34808   925.34808
     3      426.64667      666.11426    -3     5    -3   0.46184  -0.10620   0.02544  14.36190   0.08291  62.75022       24765.00       38466.31     1.24198     1.24333   146.51752     0.18301     0.00000   992.03156   992.03156
    12      648.66730      500.20499    -6     6    -4   0.17397   0.04464   0.00914  18.19305   0.05794  72.04415       30717.00       52141.31     1.21359     1.53524   179.48859     0.21488     0.00000   282.90195   282.90195
     8      668.66693      570.49280    -5     5    -3   0.11774  -0.02295   0.00629  15.64322   0.07078  68.09186       19191.00       41162.31     1.09000     1.87878     0.00000     0.18978     0.00000   649.00854   649.00854
    13      868.12256      257.28229    -5     3    -3   0.07638   0.19131   0.00664  10.82894   0.08279  87.48850       12386.00       21467.31     1.19486     1.44063     3.47145     0.17981     0.00000   258.94113   258.94113
     9      331.59317      270.36185    -4     6    -6  -0.47910  -0.00617   0.02163  15.68447   0.05784  86.20940       45212.00       67892.30     1.08409     1.54510     0.02965     0.19155     0.00000   669.00189   669.00189
    10      282.61594      288.48129    -3     5    -5  -0.40026  -0.01170   0.01775  12.97836   0.07064  85.09904       13239.00       38670.31     1.67882     1.99312    17.34385     0.21019     0.00000   868.34198   868.34198
    19      258.62411      619.59607    -3     7    -5  -0.01506  -0.36375   0.00959  19.09426   0.05963  65.97917       11968.00       24261.31     1.17234     1.72092   177.59344     0.21288     0.00000   439.07220   439.07220
    17      858.90198      567.49396    -7     5    -3   0.15575  -0.26988   0.01066  18.25016   0.05967  69.39281        8210.00       16636.31     1.23155     1.54248   179.25948     0.20767     0.00000   722.14630   722.14630
    31      475.05472      454.82236    -6     8    -6   0.00167   0.09088   0.00276  21.97127   0.04659  74.55492        2443.00        5435.31     1.07784     1.52609     0.74149     0.15081     0.00000   454.99966   454.99966
    20      463.67004      498.17004    -5     7    -5   0.37387  -0.11660   0.01985  19.31764   0.05461  71.98081        1145.00        3223.31     1.33572     1.60059   172.49615     0.10555     0.00000  1013.01508  1013.01508
    22      721.86383      228.63860    -8     6    -6   0.05127   0.01234   0.00232  18.98131   0.04655  89.11583        6387.00       16736.31     1.23300     1.90211   179.23807     0.17089     0.00000   145.94194   145.94194
    15      129.38768       39.62595    -3     5    -7  -0.19601   0.26657   0.01049  13.62178   0.05947  99.85460         879.00        3180.31     1.46336     1.81234     0.00000     0.11034     0.00000   475.05225   475.05225
    18      438.70093       20.96184    -6     6    -8   0.42668   0.32104   0.01978  17.14099   0.04649 102.15978       15505.00       30126.31     1.22506     1.67882     6.65259     0.22031     0.00000   129.73898   129.73898
    30     1012.70947      601.54370    -9     5    -3   0.04462  -0.16041   0.00459  21.60246   0.05069  68.96148         482.00        2063.31     1.28507     2.00200   174.53281     0.09725     0.00000   699.02216   699.02216
    16      753.59674      232.68996    -7     5    -5  -0.32005   0.18590   0.01525  16.22880   0.05456  88.87587        7328.00       18115.31     1.08857     1.94953     0.09306     0.29736     0.00000   464.00632   464.00632
    21      145.61855      355.19418    -3     7    -7  -0.00737   0.00919   0.00040  18.14061   0.05244  81.32715       20167.00       29546.31     1.15424     1.26408   179.24252     0.18869     0.00000   753.88293   753.88293
    23      364.76266      259.68683    -5     7    -7  -0.03514  -0.05796   0.00247  18.42621   0.04893  86.88699        8656.00       14636.31     1.20359     1.32738     2.43971     0.17502     0.00000   365.09711   365.09711
    29      784.15582       52.52981   -10     6    -8  -0.05521  -0.11402   0.00417  21.07677   0.03835 100.15373        4737.00        8283.31     1.12249     1.32792   176.35178     0.14579     0.00000   262.00397   262.00397
    33      300.67874       92.99210    -6     8   -10  -0.05501   0.04484   0.00263  21.53576   0.03833  97.34005         610.00        2434.22     1.36405     1.79847    16.01220     0.11308     0.00000   971.97046   971.97046
    25      919.94391      273.24707    -9     5    -5   0.11624  -0.07129   0.00513  19.04929   0.04744  86.63400         759.00        2379.31     1.15748     1.80913   176.58234     0.09715     0.00000   301.01089   301.01089
    26       27.57600      162.44597    -3     7    -9   0.36791   0.07282   0.01251  18.66605   0.04597  92.52597        3014.00       10292.31     1.67735     1.88683    16.60311     0.17871     0.00000   920.15503   920.15503
    24      822.89197       31.35419    -9     5    -7   0.16935  -0.15808   0.00771  18.39892   0.04356 101.33261         804.00        3525.31     1.62960     1.91311    41.59235     0.12468     0.00000   784.10596   784.10596
    27      261.67902       78.66805    -5     7    -9  -0.05772  -0.02374   0.00233  18.85131   0.04354  98.10505        3676.00        9105.31     1.38225     1.68265   168.28230     0.17125     0.00000    27.91710    27.91710
    35      698.73486      226.35594    -9     7    -7   0.06682  -0.12475   0.00500  21.75073   0.04057  89.25100           0.00           0.00     0.00000     0.00000     0.00000     0.00000     0.00000     0.00000     0.00000
    28      454.66623       47.76337    -7     7    -9   0.00292   0.03143   0.00099  19.89110   0.04052 100.53978        3390.00       10338.31     1.51128     1.89481    47.91400     0.20046     0.00000   823.14038   823.14038
    32      971.53412       85.53019   -11     5    -7  -0.29960  -0.32612   0.01439  21.19130   0.03885  97.71137         617.00        2403.31     1.40855     1.61804    11.15391     0.11111     0.00000   971.94904   971.94904
latticeparameters=   0.54329   0.54479   0.54094  89.94725  90.19073  90.25696
dpsx, dpsy: 179.00000 168.38699
dd, xcent, ycent:      150.57201      540.60303      212.87601
pitch,yaw,roll:  -0.22645   0.61642   0.00000
dev1, dev2, pixdev:   0.01224   0.01206   0.24958
deviatoric strain in crystal reference u1 u2 u3 (*10^3)
   0.53562  -2.24980  -1.65814
  -2.24980   3.28233   0.45113
  -1.65814   0.45113  -3.80517
deviatoric strain in sample reference X Y Z (*10^3)
  -0.23357  -0.92118   0.52928
  -0.92118   4.54914   0.15561
   0.52928   0.15561  -4.30279
deviatoric principal strains (*10^3):   4.72078  -0.32908  -4.37892
deviatoric strain principal axes in sample reference:
  -0.18215   0.98325   0.00627
   0.97418   0.17960   0.13679
  -0.13337  -0.03103   0.99058
deviatoric stress in crystal reference u1 u2 u3 (MPa)
       55.28940     -357.76288     -263.67773
     -357.76288      334.63010       71.73896
     -263.67773       71.73896     -386.16931
deviatoric stress in sample reference X Y Z (MPa)
      -36.30475     -204.98274      -22.69655
     -204.98274      559.25006       19.82447
      -22.69655       19.82447     -519.19513
deviatoric principal stresses (MPa):      623.55920      -99.44460     -520.36438
deviatoric stress principal axes in sample reference:
       -0.29729        0.95452        0.02246
       -0.95384       -0.29796        0.03750
        0.04249       -0.01028        0.99904
total strain in sample reference X Y Z (*10^3)
   1.53529  -0.92118   0.52928
  -0.92118   6.31799   0.15561
   0.52928   0.15561  -2.53393
total principal strains (*10^3):   6.48964   1.43978  -2.61007
total strain principal axes in sample reference:
  -0.18215   0.98325   0.00627
   0.97418   0.17960   0.13679
  -0.13337  -0.03103   0.99058
total stress in crystal reference u1 u2 u3 (MPa)
      574.48450     -357.76288     -263.67773
     -357.76288      853.82520       71.73896
     -263.67773       71.73896      133.02580
total stress in sample reference X Y Z (MPa)
      482.89038     -204.98274      -22.69655
     -204.98274     1078.44519       19.82447
      -22.69655       19.82447        0.00000
total principal stresses (MPa):     1142.75439      419.75049       -1.16926
total stress principal axes in sample reference:
       -0.29729        0.95452        0.02246
       -0.95384       -0.29796        0.03750
        0.04249       -0.01028        0.99904
dilatational strain (*10^-3):        1.76886
hydrostatic stress (MPa):      520.44519
Von Mises stress (MPa):     1002.11499
equivalent strain (*10^-3):        5.26428
equivalent stress (MPa):     1002.11499
maximum resolved shear stress:       22.96968
coordinates of a, b, c in X, Y, Z
   0.44451  -0.20240   0.23859
   0.19246   0.50582   0.06495
  -0.24576   0.03226   0.48113
coordinates of a*, b*, c* in X, Y, Z
   1.50616  -0.67772   0.81478
   0.65597   1.70114   0.22099
  -0.83545   0.10642   1.64678
