\\vmware-host\Shared Folders\Desktop\SiHyperlaueFinal_shielded_results\results_00108.STR
Number of grains:       1
Grain no:       1   Grainlist file index:       1    Number of peaks:      32
no   x(exp)  y(exp)  h  k  l xdev  ydev  angdev  energy  dspace  twotheta  intens   integr  xwidth   ywidth  tilt  rfactor   pearson  xcentroid  ycentroid
     2      392.64017      871.99591    -2     4    -2  -0.29379  -0.11403   0.01710  12.44972   0.11103  53.29120       29307.00       93749.35     1.69446     2.04029   178.61737     0.20905     0.00000   746.68146   746.68146
     5      746.38354      951.27576    -3     3    -1  -0.38589   0.51727   0.02408  11.59465   0.12489  50.69729       32710.00       82016.35     1.68034     1.78854    72.90322     0.21589     0.00000  1026.77954  1026.77954
    14      991.68433      299.61978    -4     2    -2   0.13981  -0.09512   0.00603   8.25870   0.11083  85.26070       11812.00       27433.35     1.50136     1.67088    53.01841     0.21647     0.00000   859.20349   859.20349
     4      546.07483      225.15399    -3     3    -3   0.08865   0.19008   0.00748   8.45344   0.10445  89.18962       39229.00      137882.34     1.82909     1.87771    16.06762     0.22320     0.00000   546.38568   546.38568
     7     1026.46521      909.49176    -5     3    -1  -0.27469   0.26058   0.01378  14.49381   0.09196  55.43476       30304.00      146811.34     1.90503     2.90796   175.49825     0.30991     0.00000   426.88336   426.88336
     6      925.01355      683.00323    -6     4    -2   0.09438   0.03565   0.00441  16.08354   0.07267  64.06264       33854.00       88958.35     1.65510     1.90141   114.55850     0.24136     0.00000   925.35168   925.35168
     3      426.64670      666.12000    -3     5    -3   0.46614  -0.10707   0.02567  14.36177   0.08291  62.74996       24442.00       37995.35     1.23712     1.24411   161.43916     0.18286     0.00000   992.02972   992.02972
    12      648.66748      500.21606    -6     6    -4   0.17749   0.03940   0.00930  18.19298   0.05794  72.04382       30327.00       51370.35     1.21467     1.53728   179.40404     0.21180     0.00000   282.89142   282.89142
     8      668.66699      570.49677    -5     5    -3   0.12118  -0.02011   0.00646  15.64319   0.07079  68.09149       19200.00       40655.35     1.08988     1.86987   179.98004     0.19163     0.00000   649.00665   649.00665
    13      868.10864      257.29260    -5     3    -3   0.09229   0.18622   0.00684  10.82889   0.08280  87.48818       12095.00       20935.35     1.19502     1.44292     3.40905     0.17719     0.00000   258.93527   258.93527
     9      331.59729      270.36542    -4     6    -6  -0.48086  -0.01152   0.02171  15.68418   0.05784  86.20951       44451.00       66462.35     1.08439     1.53717     0.01490     0.19024     0.00000   669.00116   669.00116
    10      282.61545      288.48047    -3     5    -5  -0.39806  -0.01309   0.01765  12.97810   0.07064  85.09918       12957.00       38349.35     1.80898     1.85106    73.58119     0.20573     0.00000   868.34375   868.34375
    19      258.62393      619.59723    -3     7    -5  -0.01206  -0.36283   0.00954  19.09396   0.05963  65.97905       12017.00       24334.35     1.17291     1.71496   177.50244     0.21533     0.00000   439.08701   439.08701
    17      858.90369      567.50232    -7     5    -3   0.15515  -0.27037   0.01065  18.25019   0.05967  69.39240        8117.00       16525.35     1.24009     1.55343   177.33961     0.20645     0.00000   722.17041   722.17041
    31      475.07895      454.86331    -6     8    -6  -0.01849   0.05284   0.00185  21.97103   0.04659  74.55474        2590.00        5404.35     1.07789     1.48070     1.37005     0.14584     0.00000   454.98071   454.98071
    20      463.66949      498.15421    -5     7    -5   0.37855  -0.09748   0.02002  19.31743   0.05461  71.98061        1145.00        3245.35     1.34821     1.58180   170.85300     0.10718     0.00000  1012.99597  1012.99597
    21      721.86499      228.63286    -8     6    -6   0.05357   0.02153   0.00249  18.98116   0.04655  89.11561       19963.00       28988.35     1.15772     1.26657   178.39903     0.18267     0.00000   753.87109   753.87109
    15      129.38148       39.62770    -3     5    -7  -0.19360   0.25592   0.01020  13.62144   0.05947  99.85509         788.00        3011.35     1.53837     1.83274   176.80969     0.10702     0.00000   475.03384   475.03384
    18      438.70117       20.95829    -6     6    -8   0.42908   0.32034   0.01986  17.14067   0.04649 102.16005       15405.00       29934.35     1.22202     1.68742     6.30333     0.21701     0.00000   129.73708   129.73708
    30     1012.70831      601.55658    -9     5    -3   0.04383  -0.16561   0.00469  21.60254   0.05069  68.96108         437.00        2104.35     1.27973     2.02536     2.61253     0.10014     0.00000   699.01514   699.01514
    16      753.59491      232.69054    -7     5    -5  -0.31499   0.18919   0.01508  16.22868   0.05456  88.87562        7188.00       17443.35     1.08928     1.94551   179.94617     0.29709     0.00000   464.01511   464.01511
    22      145.61462      355.20346    -3     7    -7  -0.00415  -0.00291   0.00019  18.14020   0.05245  81.32731        6362.00       16411.35     1.24350     1.88997   179.46106     0.16731     0.00000   145.93646   145.93646
    23      364.76779      259.68741    -5     7    -7  -0.03753  -0.05996   0.00259  18.42588   0.04893  86.88708        8476.00       14534.35     1.19364     1.34037     1.46241     0.17917     0.00000   365.10214   365.10214
    29      784.13879       52.54407   -10     6    -8  -0.03469  -0.12656   0.00414  21.07656   0.03835 100.15361        4666.00        8330.35     1.12083     1.36674   177.27290     0.14797     0.00000   262.00806   262.00806
    32      300.68588       92.96142    -6     8   -10  -0.06124   0.07031   0.00332  21.53530   0.03834  97.34038         585.00        2269.35     1.39219     1.85431    10.93694     0.09941     0.00000   971.98218   971.98218
    25      919.94617      273.24347    -9     5    -5   0.11521  -0.06198   0.00498  19.04923   0.04744  86.63366         775.00        2447.35     1.14226     1.75701   175.90919     0.10380     0.00000   301.00058   301.00058
    26       27.57635      162.42322    -3     7    -9   0.36158   0.08815   0.01237  18.66556   0.04597  92.52638        2994.00       10263.35     1.67766     1.88084    15.20457     0.17939     0.00000   920.14795   920.14795
    24      822.89282       31.34446    -9     5    -7   0.17182  -0.14648   0.00760  18.39875   0.04356 101.33249         771.00        3468.35     1.54352     1.82871   163.92175     0.13401     0.00000   784.06305   784.06305
    27      261.67981       78.65705    -5     7    -9  -0.05848  -0.01884   0.00233  18.85088   0.04354  98.10542        3507.00        8909.35     1.39676     1.72334   169.75107     0.16696     0.00000    27.93722    27.93722
    34      698.74988      226.35118    -9     7    -7   0.05540  -0.11686   0.00449  21.75055   0.04057  89.25080         522.00        2764.24     1.23885     2.33164     5.66252     0.52932     0.00000   615.84363   615.84363
    28      454.66409       47.76184    -7     7    -9   0.00796   0.02950   0.00098  19.89074   0.04053 100.54000        3348.00       10309.35     1.50222     1.91486    83.22406     0.20176     0.00000   823.13153   823.13153
    33      971.55707       85.55903   -11     5    -7  -0.32098  -0.35089   0.01545  21.19117   0.03885  97.71113         610.00        2434.22     1.36405     1.79847    16.01220     0.11308     0.00000   971.97046   971.97046
latticeparameters=   0.54329   0.54479   0.54094  89.94876  90.19024  90.25591
dpsx, dpsy: 179.00000 168.38699
dd, xcent, ycent:      150.57201      540.60303      212.87601
pitch,yaw,roll:  -0.22645   0.61642   0.00000
dev1, dev2, pixdev:   0.01228   0.01211   0.24967
deviatoric strain in crystal reference u1 u2 u3 (*10^3)
   0.52786  -2.24055  -1.65384
  -2.24055   3.28250   0.43806
  -1.65384   0.43806  -3.79761
deviatoric strain in sample reference X Y Z (*10^3)
  -0.23078  -0.90702   0.52470
  -0.90702   4.54030   0.14822
   0.52470   0.14822  -4.29677
deviatoric principal strains (*10^3):   4.70720  -0.32324  -4.37121
deviatoric strain principal axes in sample reference:
  -0.18007   0.98364   0.00570
   0.97474   0.17766   0.13534
  -0.13211  -0.02993   0.99078
deviatoric stress in crystal reference u1 u2 u3 (MPa)
       54.49779     -356.29291     -262.99402
     -356.29291      334.64542       69.65954
     -262.99402       69.65954     -385.40253
deviatoric stress in sample reference X Y Z (MPa)
      -35.65526     -202.86079      -23.08987
     -202.86079      557.89447       18.56127
      -23.08987       18.56127     -518.49854
deviatoric principal stresses (MPa):      621.13147      -97.71124     -519.67950
deviatoric stress principal axes in sample reference:
       -0.29574        0.95503        0.02155
       -0.95426       -0.29638        0.03929
        0.04391       -0.00894        0.99900
total strain in sample reference X Y Z (*10^3)
   1.53570  -0.90702   0.52470
  -0.90702   6.30678   0.14822
   0.52470   0.14822  -2.53028
total principal strains (*10^3):   6.47368   1.44324  -2.60472
total strain principal axes in sample reference:
  -0.18007   0.98364   0.00570
   0.97474   0.17766   0.13534
  -0.13211  -0.02993   0.99078
total stress in crystal reference u1 u2 u3 (MPa)
      572.99628     -356.29291     -262.99402
     -356.29291      853.14392       69.65954
     -262.99402       69.65954      133.09598
total stress in sample reference X Y Z (MPa)
      482.84326     -202.86079      -23.08987
     -202.86079     1076.39294       18.56127
      -23.08987       18.56127        0.00000
total principal stresses (MPa):     1139.63000      420.78726       -1.18099
total stress principal axes in sample reference:
       -0.29574        0.95503        0.02155
       -0.95426       -0.29638        0.03929
        0.04391       -0.00894        0.99900
dilatational strain (*10^-3):        1.76648
hydrostatic stress (MPa):      519.74542
Von Mises stress (MPa):      999.05994
equivalent strain (*10^-3):        5.25164
equivalent stress (MPa):      999.05994
maximum resolved shear stress:       21.51686
coordinates of a, b, c in X, Y, Z
   0.44450  -0.20239   0.23859
   0.19247   0.50581   0.06495
  -0.24576   0.03226   0.48113
coordinates of a*, b*, c* in X, Y, Z
   1.50614  -0.67774   0.81478
   0.65595   1.70113   0.22099
  -0.83544   0.10646   1.64675
