\\vmware-host\Shared Folders\Desktop\SiHyperlaueFinal_shielded_results\results_00141.STR
Number of grains:       1
Grain no:       1   Grainlist file index:       1    Number of peaks:      33
no   x(exp)  y(exp)  h  k  l xdev  ydev  angdev  energy  dspace  twotheta  intens   integr  xwidth   ywidth  tilt  rfactor   pearson  xcentroid  ycentroid
     4      392.64151      872.05005    -2     4    -2  -0.44270   0.16380   0.02528  12.43444   0.11119  53.27801       34223.00      125553.51     1.83495     1.88373   176.35074     0.22298     0.00000   546.38635   546.38635
     7      746.40906      951.33026    -3     3    -1  -0.33043   0.55996   0.02170  11.58285   0.12502  50.69421       26294.00      131978.52     1.90810     2.96638   176.57687     0.30765     0.00000   426.90970   426.90970
    13      991.68811      299.60898    -4     2    -2   0.05253  -0.07365   0.00294   8.25633   0.11087  85.25985       28836.00       47897.51     1.20848     1.50030   179.25888     0.20896     0.00000   282.89853   282.89853
     3      546.08679      225.18275    -3     3    -3   0.13262   0.12019   0.00734   8.44701   0.10453  89.19235       22292.00       35713.51     1.24917     1.26350    14.25048     0.18976     0.00000   992.03638   992.03638
     6     1026.46948      909.49127    -5     3    -1  -0.23561   0.09354   0.01086  14.48313   0.09202  55.44182       29330.00       79179.51     1.71316     1.83550     9.54375     0.24899     0.00000   925.35553   925.35553
     5      925.02002      682.98724    -6     4    -2   0.14052  -0.04656   0.00673  16.07206   0.07272  64.06792       26098.00       66421.51     1.69688     1.79152    81.11256     0.20326     0.00000  1026.79211  1026.79211
     2      426.65997      666.12982    -3     5    -3   0.36909  -0.04033   0.02029  14.34408   0.08302  62.74624       21104.00       64215.51     1.65320     2.04113   178.64980     0.20439     0.00000   746.71106   746.71106
    28        5.02192      893.49219    -1     7    -5   0.59940   0.03008   0.02580  20.99231   0.06280  56.09770        3520.00        8707.51     1.40009     1.65794   168.23718     0.16671     0.00000    27.91862    27.91862
    12      648.66693      500.20978    -6     6    -4   0.23086  -0.01030   0.01203  18.17595   0.05799  72.04727       24897.00       50705.51     1.25702     1.69670   178.16129     0.23817     0.00000   331.87244   331.87244
     8      668.66730      570.49622    -5     5    -3   0.17704  -0.06663   0.00960  15.62806   0.07085  68.09434        1609.00        6127.37     1.73431     2.05211     4.86243     0.13204     0.00000     7.04870     7.04870
    14      868.13428      257.26907    -5     3    -3   0.06734   0.23013   0.00755  10.82467   0.08283  87.48694       11789.00       20246.51     1.19276     1.43701     3.34399     0.17363     0.00000   258.93253   258.93253
     9      331.59976      270.39539    -4     6    -6  -0.52257  -0.10594   0.02388  15.66850   0.05790  86.21360       17817.00       38401.51     1.09002     1.87596     0.00000     0.19264     0.00000   649.00195   649.00195
    10      282.61838      288.49869    -3     5    -5  -0.47662  -0.08947   0.02137  12.96457   0.07071  85.10286       41840.00       62865.51     1.08468     1.53845     0.05995     0.19042     0.00000   669.00903   669.00903
    19      258.62460      619.60229    -3     7    -5  -0.23357  -0.23047   0.01356  19.06988   0.05971  65.97330       14932.00       28782.51     1.21420     1.68315     5.66792     0.20991     0.00000   129.74553   129.74553
    17      858.92194      567.48767    -7     5    -3   0.19373  -0.32905   0.01314  18.23722   0.05971  69.39677        6951.00       17311.51     1.09483     1.95361     0.11180     0.29495     0.00000   464.00922   464.00922
    32      475.09244      454.83524    -6     8    -6  -0.04487   0.03133   0.00249  21.94723   0.04663  74.55776        2450.00        5333.51     1.07915     1.54055   178.77657     0.14326     0.00000   454.97604   454.97604
    20      463.67111      498.17178    -5     7    -5   0.34950  -0.14948   0.01876  19.29567   0.05467  71.98267       11616.00       24021.51     1.17548     1.73740   177.50391     0.21399     0.00000   439.08310   439.08310
    21      721.87872      228.63235    -8     6    -6   0.09502   0.02251   0.00431  18.97079   0.04657  89.11563        1070.00        3124.51     1.33776     1.64765   171.79010     0.10531     0.00000  1013.00543  1013.00543
    15      129.38580       39.63184    -3     5    -7  -0.19777   0.21191   0.00939  13.61017   0.05952  99.85737       10961.00       26473.51     1.52044     1.71407    66.93522     0.21570     0.00000   859.20966   859.20966
    18      438.70099       20.97397    -6     6    -8   0.52440   0.32906   0.02339  17.13026   0.04651 102.15875        7735.00       16445.51     1.24231     1.57667   179.13393     0.21305     0.00000   722.15491   722.15491
    31     1012.71594      601.52167    -9     5    -3   0.02324  -0.25209   0.00647  21.59077   0.05071  68.96703         456.00        1922.51     1.27181     1.94983     6.16057     0.09306     0.00000   699.03149   699.03149
    16      753.60022      232.68697    -7     5    -5  -0.27268   0.19946   0.01354  16.22040   0.05459  88.87524         783.00        2909.51     1.50651     1.84455   177.81699     0.10241     0.00000   475.05585   475.05585
    22      145.61911      355.24063    -3     7    -7  -0.21488  -0.04350   0.00902  18.11970   0.05250  81.32813       19245.00       28007.51     1.15561     1.25331   179.23512     0.18235     0.00000   753.89801   753.89801
    23      364.77048      259.68854    -5     7    -7  -0.05761  -0.12670   0.00486  18.40807   0.04897  86.89128        6493.00       16174.51     1.23478     1.88556   179.09296     0.16911     0.00000   145.93456   145.93456
    30      784.14282       52.51098   -10     6    -8  -0.02343   0.04441   0.00160  21.07093   0.03837 100.14518        4686.00        8338.51     1.12355     1.33910   176.83672     0.14889     0.00000   262.02582   262.02582
    33      300.68491       93.02898    -6     8   -10  -0.02961  -0.03892   0.00167  21.51793   0.03837  97.34304         621.00        2454.51     1.37630     1.76421    13.92788     0.11268     0.00000   971.96979   971.96979
    24      919.95892      273.20984    -9     5    -5   0.07208  -0.00832   0.00290  19.04269   0.04745  86.63240        8338.00       14373.51     1.20219     1.34405     1.39120     0.17855     0.00000   365.11856   365.11856
    26       27.57444      162.46593    -3     7    -9   0.21085   0.00562   0.00709  18.64745   0.04601  92.52833         749.00        2493.51     1.15414     1.83630   175.99071     0.09988     0.00000   301.01965   301.01965
    25      822.88947       31.34339    -9     5    -7   0.16051   0.02855   0.00614  18.39504   0.04357 101.32214         836.00        3600.51     1.64515     1.89195    75.71691     0.13139     0.00000   784.08124   784.08124
    27      261.68091       78.66897    -5     7    -9  -0.03494  -0.07235   0.00255  18.83557   0.04357  98.10803        2849.00       10230.51     1.69773     1.90264    19.42290     0.17947     0.00000   920.16003   920.16003
    36      698.75195      226.31761    -9     7    -7   0.11265  -0.08785   0.00579  21.73807   0.04060  89.25114           0.00           0.00     0.00000     0.00000     0.00000     0.00000     0.00000     0.00000     0.00000
    29      454.66571       47.76427    -7     7    -9   0.09352   0.03997   0.00405  19.87828   0.04055 100.53935        3267.00        9966.51     1.56584     1.84706    79.41058     0.19951     0.00000   823.12799   823.12799
    34      971.55634       85.58506   -11     5    -7  -0.45938  -0.19960   0.01724  21.18902   0.03885  97.70131         522.00        2764.24     1.23885     2.33164     5.66252     0.52932     0.00000   615.84363   615.84363
latticeparameters=   0.54286   0.54539   0.54076  89.96550  90.24607  90.28861
dpsx, dpsy: 179.00000 168.38699
dd, xcent, ycent:      150.57201      540.60303      212.87601
pitch,yaw,roll:  -0.22645   0.61642   0.00000
dev1, dev2, pixdev:   0.01382   0.01336   0.27015
deviatoric strain in crystal reference u1 u2 u3 (*10^3)
  -0.25289  -2.52967  -2.13852
  -2.52967   4.39734   0.28908
  -2.13852   0.28908  -4.12625
deviatoric strain in sample reference X Y Z (*10^3)
  -0.44143  -0.51330   0.05364
  -0.51330   5.59199   0.31596
   0.05364   0.31596  -5.13235
deviatoric principal strains (*10^3):   5.64428  -0.48342  -5.14266
deviatoric strain principal axes in sample reference:
  -0.08376   0.99607   0.02879
   0.99638   0.08329   0.01716
  -0.01469  -0.03012   0.99944
deviatoric stress in crystal reference u1 u2 u3 (MPa)
      -24.55449     -402.26788     -340.06680
     -402.26788      448.37415       45.96927
     -340.06680       45.96927     -418.47510
deviatoric stress in sample reference X Y Z (MPa)
      -43.35505     -175.56320      -92.35607
     -175.56320      677.10608       31.37419
      -92.35607       31.37419     -628.40649
deviatoric principal stresses (MPa):      719.57782      -71.57935     -642.65387
deviatoric stress principal axes in sample reference:
       -0.22849        0.97279        0.03830
       -0.96171       -0.23165        0.14646
        0.15134       -0.00337        0.98848
total strain in sample reference X Y Z (*10^3)
   1.69950  -0.51330   0.05364
  -0.51330   7.73292   0.31596
   0.05364   0.31596  -2.99142
total principal strains (*10^3):   7.78522   1.65752  -3.00173
total strain principal axes in sample reference:
  -0.08376   0.99607   0.02879
   0.99638   0.08329   0.01716
  -0.01469  -0.03012   0.99944
total stress in crystal reference u1 u2 u3 (MPa)
      603.85199     -402.26788     -340.06680
     -402.26788     1076.78064       45.96927
     -340.06680       45.96927      209.93137
total stress in sample reference X Y Z (MPa)
      585.05139     -175.56320      -92.35607
     -175.56320     1305.51257       31.37419
      -92.35607       31.37419        0.00000
total principal stresses (MPa):     1347.98425      556.82715      -14.24741
total stress principal axes in sample reference:
       -0.22849        0.97279        0.03830
       -0.96171       -0.23165        0.14646
        0.15134       -0.00337        0.98848
dilatational strain (*10^-3):        2.14093
hydrostatic stress (MPa):      630.18799
Von Mises stress (MPa):     1184.84827
equivalent strain (*10^-3):        6.24705
equivalent stress (MPa):     1184.84827
maximum resolved shear stress:       19.56676
coordinates of a, b, c in X, Y, Z
   0.44370  -0.20268   0.23791
   0.19269   0.50587   0.06535
  -0.24585   0.03193   0.48043
coordinates of a*, b*, c* in X, Y, Z
   1.50535  -0.67873   0.81545
   0.65583   1.69720   0.22280
  -0.83464   0.10524   1.64630
