\\vmware-host\Shared Folders\Desktop\SiHyperlaueFinal_shielded_results\results_00048.STR
Number of grains:       1
Grain no:       1   Grainlist file index:       1    Number of peaks:      33
no   x(exp)  y(exp)  h  k  l xdev  ydev  angdev  energy  dspace  twotheta  intens   integr  xwidth   ywidth  tilt  rfactor   pearson  xcentroid  ycentroid
     2      392.62500      871.98828    -2     4    -2  -0.33250  -0.11781   0.01931  12.44724   0.11105  53.29192       59557.00      204043.59     1.78805     2.06295   178.17702     0.21347     0.00000   746.62213   746.62213
     5      746.31097      951.29150    -3     3    -1  -0.33523   0.52824   0.02163  11.59329   0.12490  50.69610       48950.00      126607.59     1.61814     1.92508    97.95042     0.19154     0.00000  1026.74719  1026.74719
    13      991.66815      299.61963    -4     2    -2   0.10648  -0.03426   0.00418   8.25872   0.11084  85.25706       48871.00       84896.59     1.23205     1.56472   179.17560     0.22829     0.00000   282.87814   282.87814
     3      546.03198      225.15120    -3     3    -3   0.11792   0.19308   0.00839   8.45274   0.10446  89.18960       38219.00       57935.59     1.23650     1.23719   118.55060     0.18406     0.00000   992.00671   992.00671
     6     1026.42810      909.52582    -5     3    -1  -0.27532   0.27305   0.01393  14.49322   0.09197  55.43245       45784.00      122300.59     1.59928     1.96901   136.33839     0.23871     0.00000   925.34351   925.34351
     7      924.98718      683.04889    -6     4    -2   0.09089   0.02346   0.00422  16.08268   0.07268  64.06073        1077.00        2351.59     1.14796     1.42956   177.36542     0.08190     0.00000    62.02644    62.02644
    34       61.80078      407.68503    -1     3    -3   0.24188   0.29250   0.01288   7.85962   0.12446  78.64972         522.00        2764.24     1.23885     2.33164     5.66252     0.52932     0.00000   615.84363   615.84363
     4      426.61691      666.12555    -3     5    -3   0.45409  -0.13610   0.02507  14.35919   0.08292  62.75128       78936.00      261586.59     1.79459     1.87407     4.67119     0.23110     0.00000   546.37445   546.37445
    14      648.66730      500.23798    -6     6    -4   0.15759   0.01699   0.00822  18.19099   0.05795  72.04379       14385.00       25698.59     1.22591     1.46932     4.88361     0.19254     0.00000   258.90555   258.90555
     8      668.66681      570.51093    -5     5    -3   0.10058  -0.03303   0.00543  15.64141   0.07079  68.09134       47843.00      219858.59     1.90156     2.76245   175.29668     0.30532     0.00000   426.82492   426.82492
     9      868.08582      257.31735    -5     3    -3   0.08471   0.20866   0.00727  10.82869   0.08280  87.48525       24656.00       50890.59     1.08995     1.85986   179.97093     0.19899     0.00000   649.00732   649.00732
    11      331.58749      270.36478    -4     6    -6  -0.49984  -0.04028   0.02262  15.68219   0.05785  86.21138       31955.00       87054.59     1.66259     1.95832    57.53428     0.22547     0.00000   868.38818   868.38818
    10      282.60876      288.46640    -3     5    -5  -0.42655  -0.03376   0.01895  12.97634   0.07065  85.10137       62434.00       92119.59     1.08387     1.51605     0.04003     0.19283     0.00000   669.00439   669.00439
    19      258.61234      619.58661    -3     7    -5  -0.06441  -0.38587   0.01082  19.09028   0.05964  65.98121       23841.00       46759.59     1.24066     1.68927     7.00704     0.23888     0.00000   129.69113   129.69113
    17      858.86029      567.52917    -7     5    -3   0.17300  -0.27053   0.01129  18.24909   0.05968  69.39077        8617.00       21533.59     1.08731     1.94828   179.93045     0.30138     0.00000   464.00717   464.00717
    31      474.95697      454.85709    -6     8    -6   0.07551   0.03801   0.00410  21.96793   0.04659  74.55603         543.00        2204.59     1.26394     1.92983     8.17632     0.10432     0.00000   699.03168   699.03168
    20      463.66895      498.16946    -5     7    -5   0.34822  -0.13554   0.01862  19.31452   0.05462  71.98199       15150.00       30583.59     1.17291     1.73728   177.66982     0.21748     0.00000   439.08844   439.08844
    22      721.83862      228.64439    -8     6    -6   0.06307   0.03698   0.00306  18.98029   0.04655  89.11387       25735.00       38467.59     1.17365     1.28912   177.42863     0.20129     0.00000   753.87891   753.87891
    15      129.37981       39.61863    -3     5    -7  -0.21053   0.23124   0.01011  13.62012   0.05948  99.85693       15617.00       33878.59     1.45850     1.59900    39.13371     0.22591     0.00000   859.19379   859.19379
    18      438.70023       20.97430    -6     6    -8   0.42830   0.31237   0.01971  17.13964   0.04649 102.15955       10308.00       20080.59     1.21916     1.49931   177.87476     0.21758     0.00000   722.15741   722.15741
    30     1012.69232      601.58698    -9     5    -3   0.01662  -0.15316   0.00396  21.60200   0.05069  68.95851        5789.00       10080.59     1.11997     1.36310   177.10577     0.15513     0.00000   262.02094   262.02094
    16      753.58722      232.69730    -7     5    -5  -0.32624   0.21401   0.01586  16.22804   0.05456  88.87360        1033.00        3438.59     1.54778     1.71195   173.66779     0.11669     0.00000   475.05219   475.05219
    21      145.60857      355.19760    -3     7    -7  -0.05693  -0.04220   0.00271  18.13737   0.05245  81.33012        1327.00        3577.59     1.33283     1.51969   169.94646     0.11410     0.00000  1012.98724  1012.98724
    23      364.75543      259.68732    -5     7    -7  -0.05018  -0.08523   0.00358  18.42366   0.04893  86.88870        7858.00       20436.59     1.25413     1.89573   179.28648     0.18107     0.00000   145.92783   145.92783
    29      784.11285       52.58722   -10     6    -8  -0.03012  -0.10786   0.00354  21.07644   0.03835 100.14989        4411.00       12521.59     1.36063     1.57179     0.00000     0.24339     0.00000   823.11743   823.11743
    33      300.69031       92.98237    -6     8   -10  -0.07934   0.02966   0.00333  21.53330   0.03834  97.34156         742.00        2747.59     1.42222     1.53507   117.65824     0.12322     0.00000   971.96887   971.96887
    25      919.92639      273.31903    -9     5    -5   0.09742  -0.08418   0.00466  19.04905   0.04744  86.63040         950.00        3968.59     1.48900     1.81617   166.47150     0.14613     0.00000   784.08362   784.08362
    26       27.56974      162.42821    -3     7    -9   0.32013   0.03311   0.01079  18.66324   0.04597  92.52910         855.00        2549.59     1.13429     1.77583   179.15350     0.10167     0.00000   300.99115   300.99115
    24      822.77734       31.47131    -9     5    -7   0.26036  -0.20052   0.01119  18.39882   0.04356 101.32822       10802.00       17969.59     1.20613     1.30914     0.76215     0.18442     0.00000   365.08997   365.08997
    27      261.67892       78.65859    -5     7    -9  -0.07203  -0.04326   0.00306  18.84911   0.04354  98.10677        3999.00       12209.59     1.71957     1.75717    95.57786     0.19457     0.00000   920.16376   920.16376
    36      698.73566      226.36391    -9     7    -7   0.05399  -0.10606   0.00417  21.74945   0.04058  89.24927           0.00           0.00     0.00000     0.00000     0.00000     0.00000     0.00000     0.00000     0.00000
    28      454.66528       47.76656    -7     7    -9   0.00300   0.03142   0.00099  19.88949   0.04053 100.53958        4267.00       10649.59     1.40421     1.73548   167.88573     0.17514     0.00000    27.90878    27.90878
    32      971.54889       85.63164   -11     5    -7  -0.36656  -0.33433   0.01637  21.19163   0.03885  97.70615        2983.00        6317.59     1.08160     1.52244     1.09392     0.15838     0.00000   454.98373   454.98373
latticeparameters=   0.54323   0.54488   0.54091  89.94771  90.19622  90.25906
dpsx, dpsy: 179.00000 168.38699
dd, xcent, ycent:      150.57201      540.60303      212.87601
pitch,yaw,roll:  -0.22645   0.61642   0.00000
dev1, dev2, pixdev:   0.01245   0.01223   0.25993
deviatoric strain in crystal reference u1 u2 u3 (*10^3)
   0.42107  -2.26853  -1.70572
  -2.26853   3.45480   0.44681
  -1.70572   0.44681  -3.86235
deviatoric strain in sample reference X Y Z (*10^3)
  -0.27447  -0.84739   0.48716
  -0.84739   4.69574   0.19628
   0.48716   0.19628  -4.40775
deviatoric principal strains (*10^3):   4.83765  -0.35023  -4.47390
deviatoric strain principal axes in sample reference:
  -0.16237   0.98665   0.01239
   0.97920   0.15957   0.12529
  -0.12164  -0.03248   0.99204
deviatoric stress in crystal reference u1 u2 u3 (MPa)
       43.68748     -360.74191     -271.24380
     -360.74191      352.21738       71.05239
     -271.24380       71.05239     -391.93622
deviatoric stress in sample reference X Y Z (MPa)
      -38.98953     -198.60960      -28.78388
     -198.60960      575.06970       24.24678
      -28.78388       24.24678     -532.11151
deviatoric principal stresses (MPa):      634.55371      -96.64299     -533.94208
deviatoric stress principal axes in sample reference:
       -0.28379        0.95851        0.02692
       -0.95741       -0.28480        0.04743
        0.05313       -0.01232        0.99851
total strain in sample reference X Y Z (*10^3)
   1.53839  -0.84739   0.48716
  -0.84739   6.50860   0.19628
   0.48716   0.19628  -2.59488
total principal strains (*10^3):   6.65052   1.46263  -2.66104
total strain principal axes in sample reference:
  -0.16237   0.98665   0.01239
   0.97920   0.15957   0.12529
  -0.12164  -0.03248   0.99204
total stress in crystal reference u1 u2 u3 (MPa)
      575.79901     -360.74191     -271.24380
     -360.74191      884.32892       71.05239
     -271.24380       71.05239      140.17531
total stress in sample reference X Y Z (MPa)
      493.12198     -198.60960      -28.78388
     -198.60960     1107.18127       24.24678
      -28.78388       24.24678        0.00000
total principal stresses (MPa):     1166.66528      435.46854       -1.83053
total stress principal axes in sample reference:
       -0.28379        0.95851        0.02692
       -0.95741       -0.28480        0.04743
        0.05313       -0.01232        0.99851
dilatational strain (*10^-3):        1.81286
hydrostatic stress (MPa):      533.43439
Von Mises stress (MPa):     1022.56085
equivalent strain (*10^-3):        5.38772
equivalent stress (MPa):     1022.56085
maximum resolved shear stress:       13.90262
coordinates of a, b, c in X, Y, Z
   0.44439  -0.20245   0.23848
   0.19253   0.50582   0.06501
  -0.24573   0.03224   0.48104
coordinates of a*, b*, c* in X, Y, Z
   1.50605  -0.67798   0.81476
   0.65604   1.70053   0.22116
  -0.83530   0.10629   1.64675
