\\vmware-host\Shared Folders\Desktop\SiHyperlaueFinal_shielded_results\results_00118.STR
Number of grains:       1
Grain no:       1   Grainlist file index:       1    Number of peaks:      32
no   x(exp)  y(exp)  h  k  l xdev  ydev  angdev  energy  dspace  twotheta  intens   integr  xwidth   ywidth  tilt  rfactor   pearson  xcentroid  ycentroid
     2      392.64130      872.01672    -2     4    -2  -0.30537  -0.11692   0.01777  12.44997   0.11103  53.29050       28377.00       87578.55     1.67951     2.03025   178.46919     0.21289     0.00000   746.68768   746.68768
     6      746.39240      951.31348    -3     3    -1  -0.39516   0.49627   0.02438  11.59463   0.12489  50.69665       33586.00       88142.55     1.71029     1.87288    23.44607     0.24364     0.00000   925.34814   925.34814
    14      991.68481      299.61844    -4     2    -2   0.14910  -0.10163   0.00643   8.25868   0.11083  85.26118       11756.00       27345.55     1.55822     1.62467   106.02617     0.21726     0.00000   859.19965   859.19965
     4      546.07312      225.16374    -3     3    -3   0.08524   0.18027   0.00712   8.45357   0.10445  89.18962       38312.00      136910.55     1.82869     1.87983    24.36587     0.22502     0.00000   546.38043   546.38043
     7     1026.48193      909.53058    -5     3    -1  -0.27521   0.23884   0.01361  14.49367   0.09196  55.43432       29769.00      144371.55     1.90838     2.93133   175.46758     0.31148     0.00000   426.89029   426.89029
     5      925.02386      683.01160    -6     4    -2   0.09271   0.03011   0.00432  16.08337   0.07267  64.06259       31897.00       79189.55     1.56856     1.82115   167.21812     0.22630     0.00000  1026.77649  1026.77649
     3      426.65262      666.12988    -3     5    -3   0.45117  -0.10766   0.02486  14.36200   0.08291  62.74950       24033.00       37647.55     1.24014     1.24294    69.98120     0.18590     0.00000   992.03027   992.03027
    12      648.66718      500.22211    -6     6    -4   0.17375   0.03288   0.00909  18.19301   0.05794  72.04384       30600.00       50926.55     1.21234     1.50666   179.44809     0.21022     0.00000   282.89691   282.89691
     8      668.66711      570.49982    -5     5    -3   0.11757  -0.02247   0.00628  15.64318   0.07079  68.09144       19366.00       40582.55     1.08911     1.87045   179.92722     0.18916     0.00000   649.00037   649.00037
    13      868.13208      257.28015    -5     3    -3   0.07246   0.19137   0.00656  10.82890   0.08279  87.48864       12106.00       21045.55     1.19395     1.45441     3.21470     0.17697     0.00000   258.93463   258.93463
     9      331.59659      270.37390    -4     6    -6  -0.48523  -0.01350   0.02191  15.68462   0.05784  86.20910       44805.00       66957.55     1.08488     1.52972   179.96094     0.19210     0.00000   669.00177   669.00177
    10      282.61661      288.49548    -3     5    -5  -0.40362  -0.02024   0.01791  12.97851   0.07064  85.09869       12691.00       37715.55     1.74006     1.93897   151.26927     0.19733     0.00000   868.35413   868.35413
    19      258.62396      619.59473    -3     7    -5  -0.02017  -0.34838   0.00923  19.09451   0.05963  65.97847       12147.00       24534.55     1.17022     1.71371   177.78758     0.21544     0.00000   439.07013   439.07013
    17      858.89600      567.49432    -7     5    -3   0.16742  -0.26391   0.01097  18.25004   0.05968  69.39252        8066.00       16594.55     1.23901     1.56232   177.70248     0.20784     0.00000   722.16760   722.16760
    31      474.99707      454.84637    -6     8    -6   0.05609   0.07318   0.00370  21.97134   0.04659  74.55454        2433.00        5578.55     1.08816     1.53729   177.26945     0.15766     0.00000   455.02304   455.02304
    20      463.67078      498.15244    -5     7    -5   0.36958  -0.09134   0.01953  19.31771   0.05461  71.98036        1186.00        3292.55     1.33770     1.60729   172.34192     0.10608     0.00000  1012.99713  1012.99713
    22      721.87000      228.63448    -8     6    -6   0.04690   0.01511   0.00215  18.98129   0.04655  89.11591        6607.00       16758.55     1.24553     1.88671   179.30949     0.17135     0.00000   145.93063   145.93063
    15      129.38138       39.62750    -3     5    -7  -0.18708   0.27107   0.01038  13.62204   0.05947  99.85426         868.00        3062.55     1.55837     1.79781   170.66344     0.10518     0.00000   475.05664   475.05664
    18      438.70001       20.95675    -6     6    -8   0.42703   0.32735   0.01989  17.14117   0.04648 102.15970       15644.00       30420.55     1.21940     1.68972     6.13742     0.21604     0.00000   129.73727   129.73727
    30     1012.70416      601.55017    -9     5    -3   0.06145  -0.15888   0.00494  21.60231   0.05069  68.96119         450.00        1986.55     1.27252     1.98936     0.66379     0.09428     0.00000   698.99554   698.99554
    16      753.59637      232.68880    -7     5    -5  -0.31717   0.18545   0.01513  16.22876   0.05456  88.87597        7319.00       17918.55     1.09109     1.94593     0.05012     0.29969     0.00000   464.01407   464.01407
    21      145.61259      355.22617    -3     7    -7  -0.00337  -0.01468   0.00046  18.14090   0.05244  81.32668       20164.00       29290.55     1.15423     1.26272   179.21490     0.18458     0.00000   753.88361   753.88361
    23      364.76477      259.68628    -5     7    -7  -0.03989  -0.05332   0.00251  18.42637   0.04893  86.88673        8558.00       14528.55     1.19173     1.33142     0.49757     0.17867     0.00000   365.11209   365.11209
    29      784.16229       52.53680   -10     6    -8  -0.05839  -0.12480   0.00452  21.07682   0.03835 100.15395        4765.00        8391.55     1.11896     1.34489   177.11391     0.14611     0.00000   262.01373   262.01373
    33      300.68964       93.00598    -6     8   -10  -0.06668   0.03461   0.00290  21.53604   0.03833  97.33982         610.00        2434.22     1.36405     1.79847    16.01220     0.11308     0.00000   971.97046   971.97046
    24      919.93835      273.23373    -9     5    -5   0.12903  -0.05997   0.00548  19.04921   0.04744  86.63414         809.00        3677.55     1.64348     1.89295    81.30136     0.13537     0.00000   784.07391   784.07391
    26       27.57616      162.45464    -3     7    -9   0.37109   0.07130   0.01261  18.66642   0.04597  92.52557        3051.00       10334.55     1.67615     1.88266    17.88937     0.17784     0.00000   920.14764   920.14764
    25      822.88544       31.35383    -9     5    -7   0.18002  -0.16207   0.00810  18.39897   0.04356 101.33286         745.00        2420.55     1.12828     1.81238   179.22595     0.10136     0.00000   301.01535   301.01535
    27      261.67990       78.65858    -5     7    -9  -0.05883  -0.01006   0.00230  18.85158   0.04354  98.10479        3726.00        9183.55     1.39066     1.68365   167.95656     0.16999     0.00000    27.92314    27.92314
    35      698.74591      226.27492    -9     7    -7   0.05708  -0.04486   0.00294  21.75072   0.04057  89.25107           0.00           0.00     0.00000     0.00000     0.00000     0.00000     0.00000     0.00000     0.00000
    28      454.66559       47.77149    -7     7    -9   0.00278   0.02432   0.00077  19.89129   0.04052 100.53972        3388.00       10164.55     1.49129     1.89487    77.85487     0.19808     0.00000   823.11731   823.11731
    32      971.57410       85.56003   -11     5    -7  -0.33139  -0.36110   0.01592  21.19130   0.03885  97.71164         634.00        2453.55     1.32498     1.82623     9.99698     0.11120     0.00000   971.95520   971.95520
latticeparameters=   0.54330   0.54479   0.54093  89.94701  90.19156  90.25950
dpsx, dpsy: 179.00000 168.38699
dd, xcent, ycent:      150.57201      540.60303      212.87601
pitch,yaw,roll:  -0.22645   0.61642   0.00000
dev1, dev2, pixdev:   0.01231   0.01213   0.24845
deviatoric strain in crystal reference u1 u2 u3 (*10^3)
   0.54656  -2.27204  -1.66528
  -2.27204   3.29144   0.45310
  -1.66528   0.45310  -3.82512
deviatoric strain in sample reference X Y Z (*10^3)
  -0.23750  -0.93718   0.53258
  -0.93718   4.57427   0.14995
   0.53258   0.14995  -4.32388
deviatoric principal strains (*10^3):   4.75062  -0.33741  -4.40032
deviatoric strain principal axes in sample reference:
  -0.18409   0.98289   0.00544
   0.97379   0.18162   0.13693
  -0.13360  -0.03050   0.99057
deviatoric stress in crystal reference u1 u2 u3 (MPa)
       56.40963     -361.30008     -264.81339
     -361.30008      335.56381       72.05185
     -264.81339       72.05185     -388.19034
deviatoric stress in sample reference X Y Z (MPa)
      -37.17905     -207.53494      -22.87909
     -207.53494      562.72400       19.01586
      -22.87909       19.01586     -521.76178
deviatoric principal stresses (MPa):      628.06366     -101.35547     -522.92511
deviatoric stress principal axes in sample reference:
       -0.29842        0.95419        0.02172
       -0.95346       -0.29907        0.03836
        0.04310       -0.00926        0.99903
total strain in sample reference X Y Z (*10^3)
   1.54010  -0.93718   0.53258
  -0.93718   6.35187   0.14995
   0.53258   0.14995  -2.54628
total principal strains (*10^3):   6.52823   1.44019  -2.62272
total strain principal axes in sample reference:
  -0.18409   0.98289   0.00544
   0.97379   0.18162   0.13693
  -0.13360  -0.03050   0.99057
total stress in crystal reference u1 u2 u3 (MPa)
      578.17145     -361.30008     -264.81339
     -361.30008      857.32562       72.05185
     -264.81339       72.05185      133.57149
total stress in sample reference X Y Z (MPa)
      484.58276     -207.53494      -22.87909
     -207.53494     1084.48584       19.01586
      -22.87909       19.01586        0.00000
total principal stresses (MPa):     1149.82532      420.40640       -1.16327
total stress principal axes in sample reference:
       -0.29842        0.95419        0.02172
       -0.95346       -0.29907        0.03836
        0.04310       -0.00926        0.99903
dilatational strain (*10^-3):        1.77760
hydrostatic stress (MPa):      523.02283
Von Mises stress (MPa):     1008.60010
equivalent strain (*10^-3):        5.29434
equivalent stress (MPa):     1008.60010
maximum resolved shear stress:       23.63189
coordinates of a, b, c in X, Y, Z
   0.44452  -0.20242   0.23858
   0.19245   0.50583   0.06496
  -0.24575   0.03225   0.48113
coordinates of a*, b*, c* in X, Y, Z
   1.50618  -0.67768   0.81477
   0.65599   1.70113   0.22104
  -0.83545   0.10637   1.64685
