\\vmware-host\Shared Folders\Desktop\SiHyperlaueFinal_shielded_results\results_00041.STR
Number of grains:       1
Grain no:       1   Grainlist file index:       1    Number of peaks:      33
no   x(exp)  y(exp)  h  k  l xdev  ydev  angdev  energy  dspace  twotheta  intens   integr  xwidth   ywidth  tilt  rfactor   pearson  xcentroid  ycentroid
     2      392.62375      871.99023    -2     4    -2  -0.33056  -0.11767   0.01920  12.44775   0.11105  53.29183       59854.00      204907.77     1.79603     2.05958   178.03081     0.21513     0.00000   746.61652   746.61652
     5      746.30261      951.30206    -3     3    -1  -0.33570   0.52225   0.02160  11.59370   0.12490  50.69585       49049.00      126938.77     1.66068     1.87271   100.16361     0.19775     0.00000  1026.74487  1026.74487
    13      991.66833      299.62216    -4     2    -2   0.11174  -0.03753   0.00440   8.25875   0.11084  85.25711       49037.00       84944.77     1.23636     1.55862   179.28870     0.22747     0.00000   282.87213   282.87213
     3      546.02863      225.15062    -3     3    -3   0.12212   0.19219   0.00850   8.45283   0.10446  89.18970       38558.00       58095.77     1.23138     1.23408   144.37291     0.18234     0.00000   992.00177   992.00177
     6     1026.42517      909.53564    -5     3    -1  -0.28160   0.26848   0.01414  14.49356   0.09197  55.43213       45913.00      122324.77     1.59533     1.95984   119.23665     0.24093     0.00000   925.33740   925.33740
     7      924.97845      683.05060    -6     4    -2   0.09354   0.02686   0.00435  16.08303   0.07268  64.06042        1076.00        2303.77     1.14139     1.48819   179.27222     0.07567     0.00000    62.03338    62.03338
    35       61.81669      407.68503    -1     3    -3   0.23216   0.28827   0.01250   7.85977   0.12446  78.64993           0.00           0.00     0.00000     0.00000     0.00000     0.00000     0.00000     0.00000     0.00000
     4      426.61554      666.12891    -3     5    -3   0.45544  -0.13498   0.02514  14.35970   0.08292  62.75105       79628.00      261995.77     1.79059     1.87313     1.30995     0.23117     0.00000   546.37292   546.37292
    14      648.66718      500.24469    -6     6    -4   0.15482   0.01482   0.00807  18.19144   0.05795  72.04352       14475.00       25839.77     1.22627     1.46364     5.15892     0.19532     0.00000   258.93109   258.93109
     8      668.66687      570.51404    -5     5    -3   0.09661  -0.03088   0.00521  15.64184   0.07079  68.09103       48627.00      221057.77     1.90083     2.74984   175.08296     0.30582     0.00000   426.82257   426.82257
     9      868.07019      257.33264    -5     3    -3   0.10359   0.19184   0.00725  10.82875   0.08280  87.48535       24932.00       50840.77     1.08897     1.85597   179.96524     0.19764     0.00000   649.00439   649.00439
    11      331.58701      270.36160    -4     6    -6  -0.49746  -0.03856   0.02251  15.68244   0.05785  86.21147       32486.00       87159.77     1.65161     1.93647   143.99432     0.22337     0.00000   868.37958   868.37958
    10      282.60706      288.47006    -3     5    -5  -0.42242  -0.03907   0.01878  12.97656   0.07064  85.10147       63130.00       93000.77     1.08424     1.50924     0.08880     0.19356     0.00000   668.99792   668.99792
    19      258.61115      619.58606    -3     7    -5  -0.05892  -0.38416   0.01068  19.09089   0.05964  65.98113       24067.00       47126.77     1.24405     1.68344     7.36747     0.24053     0.00000   129.70131   129.70131
    17      858.85620      567.52771    -7     5    -3   0.17276  -0.26457   0.01117  18.24945   0.05968  69.39049        8685.00       21814.77     1.08616     1.94754     0.06374     0.30096     0.00000   464.01620   464.01620
    31      474.98080      454.84137    -6     8    -6   0.05140   0.05727   0.00321  21.96849   0.04659  74.55582         561.00        2329.77     1.27304     1.92468     6.88864     0.10540     0.00000   699.00854   699.00854
    20      463.66916      498.17621    -5     7    -5   0.34771  -0.13828   0.01861  19.31507   0.05462  71.98175       15305.00       30860.77     1.17066     1.73356   177.44536     0.22104     0.00000   439.08813   439.08813
    22      721.83899      228.64406    -8     6    -6   0.06428   0.03557   0.00309  18.98044   0.04655  89.11398       26134.00       38991.77     1.16933     1.28702   179.12721     0.20191     0.00000   753.86871   753.86871
    15      129.38445       39.61802    -3     5    -7  -0.21518   0.21954   0.01000  13.62016   0.05948  99.85764       15836.00       34053.77     1.50805     1.54152    74.13130     0.22787     0.00000   859.18549   859.18549
    18      438.70071       20.97305    -6     6    -8   0.42996   0.30345   0.01964  17.13966   0.04649 102.16018       10316.00       20232.77     1.22499     1.49953   177.85826     0.21923     0.00000   722.15985   722.15985
    30     1012.69000      601.59003    -9     5    -3   0.01598  -0.15159   0.00391  21.60232   0.05069  68.95825        5840.00        9920.77     1.11772     1.33778   178.98360     0.15042     0.00000   262.02078   262.02078
    16      753.58728      232.69595    -7     5    -5  -0.32445   0.21361   0.01578  16.22815   0.05456  88.87371        1027.00        3435.77     1.53378     1.72749   178.04070     0.11485     0.00000   475.07532   475.07532
    21      145.60835      355.19556    -3     7    -7  -0.05221  -0.04302   0.00255  18.13770   0.05245  81.33028        1371.00        3677.77     1.32999     1.54211   172.07999     0.11401     0.00000  1012.99664  1012.99664
    23      364.74994      259.68854    -5     7    -7  -0.04310  -0.08782   0.00345  18.42394   0.04893  86.88879        7949.00       20622.77     1.25085     1.89419   179.16241     0.18074     0.00000   145.91396   145.91396
    29      784.09863       52.57986   -10     6    -8  -0.00868  -0.10978   0.00338  21.07639   0.03835 100.15044        4398.00       12353.77     1.45561     1.78387    91.04120     0.22371     0.00000   823.11615   823.11615
    32      300.68564       92.96993    -6     8   -10  -0.07325   0.03437   0.00315  21.53343   0.03834  97.34204        3023.00        6474.77     1.07632     1.48499     0.68096     0.16559     0.00000   454.98779   454.98779
    25      919.91431      273.32855    -9     5    -5   0.11359  -0.09498   0.00538  19.04914   0.04744  86.63048         970.00        3975.77     1.44891     1.79727   168.25209     0.14898     0.00000   784.08502   784.08502
    26       27.57019      162.40294    -3     7    -9   0.32149   0.04892   0.01088  18.66339   0.04597  92.52964         886.00        2780.77     1.12625     1.76913   176.57288     0.11223     0.00000   300.99667   300.99667
    24      822.86005       31.42251    -9     5    -7   0.18671  -0.16234   0.00831  18.39875   0.04356 101.32883       10851.00       17918.77     1.20458     1.29425     0.93894     0.18498     0.00000   365.10229   365.10229
    27      261.68045       78.66759    -5     7    -9  -0.07234  -0.06104   0.00332  18.84921   0.04354  98.10730        4031.00       12271.77     1.63345     1.81620    21.53281     0.19561     0.00000   920.15936   920.15936
    34      698.72766      226.35017    -9     7    -7   0.06340  -0.09404   0.00414  21.74963   0.04058  89.24939         522.00        2764.24     1.23885     2.33164     5.66252     0.52932     0.00000   615.84363   615.84363
    28      454.66739       47.75458    -7     7    -9   0.00301   0.03462   0.00109  19.88954   0.04053 100.54014        4261.00       10851.77     1.39908     1.74998   169.02911     0.18063     0.00000    27.91011    27.91011
    33      971.55365       85.63352   -11     5    -7  -0.35853  -0.34498   0.01634  21.19154   0.03885  97.70661         681.00        2681.77     1.37741     1.63376    27.29851     0.12360     0.00000   971.99591   971.99591
latticeparameters=   0.54324   0.54486   0.54092  89.94880  90.19485  90.25830
dpsx, dpsy: 179.00000 168.38699
dd, xcent, ycent:      150.57201      540.60303      212.87601
pitch,yaw,roll:  -0.22645   0.61642   0.00000
dev1, dev2, pixdev:   0.01232   0.01212   0.25662
deviatoric strain in crystal reference u1 u2 u3 (*10^3)
   0.44359  -2.26180  -1.69385
  -2.26180   3.40912   0.43745
  -1.69385   0.43745  -3.83943
deviatoric strain in sample reference X Y Z (*10^3)
  -0.26237  -0.85945   0.48962
  -0.85945   4.65362   0.17919
   0.48962   0.17919  -4.37796
deviatoric principal strains (*10^3):   4.80053  -0.34317  -4.44407
deviatoric strain principal axes in sample reference:
  -0.16638   0.98601   0.01037
   0.97842   0.16377   0.12600
  -0.12254  -0.03111   0.99198
deviatoric stress in crystal reference u1 u2 u3 (MPa)
       45.96252     -359.67178     -269.35614
     -359.67178      347.55719       69.56346
     -269.35614       69.56346     -389.62009
deviatoric stress in sample reference X Y Z (MPa)
      -37.87808     -199.23985      -28.21058
     -199.23985      570.41815       21.98366
      -28.21058       21.98366     -528.64038
deviatoric principal stresses (MPa):      630.59924      -96.33369     -530.36591
deviatoric stress principal axes in sample reference:
       -0.28652        0.95775        0.02514
       -0.95661       -0.28743        0.04781
        0.05301       -0.01035        0.99854
total strain in sample reference X Y Z (*10^3)
   1.53867  -0.85945   0.48962
  -0.85945   6.45465   0.17919
   0.48962   0.17919  -2.57693
total principal strains (*10^3):   6.60156   1.45787  -2.64303
total strain principal axes in sample reference:
  -0.16638   0.98601   0.01037
   0.97842   0.16377   0.12600
  -0.12254  -0.03111   0.99198
total stress in crystal reference u1 u2 u3 (MPa)
      574.60291     -359.67178     -269.35614
     -359.67178      876.19763       69.56346
     -269.35614       69.56346      139.02032
total stress in sample reference X Y Z (MPa)
      490.76233     -199.23985      -28.21058
     -199.23985     1099.05859       21.98366
      -28.21058       21.98366        0.00000
total principal stresses (MPa):     1159.23950      432.30673       -1.72548
total stress principal axes in sample reference:
       -0.28652        0.95775        0.02514
       -0.95661       -0.28743        0.04781
        0.05301       -0.01035        0.99854
dilatational strain (*10^-3):        1.80104
hydrostatic stress (MPa):      529.94031
Von Mises stress (MPa):     1016.03528
equivalent strain (*10^-3):        5.34868
equivalent stress (MPa):     1016.03528
maximum resolved shear stress:       15.34467
coordinates of a, b, c in X, Y, Z
   0.44441  -0.20245   0.23850
   0.19253   0.50581   0.06499
  -0.24573   0.03225   0.48107
coordinates of a*, b*, c* in X, Y, Z
   1.50606  -0.67796   0.81475
   0.65606   1.70066   0.22111
  -0.83529   0.10637   1.64675
