\\vmware-host\Shared Folders\Desktop\SiHyperlaueFinal_shielded_results\results_00011.STR
Number of grains:       1
Grain no:       1   Grainlist file index:       1    Number of peaks:      33
no   x(exp)  y(exp)  h  k  l xdev  ydev  angdev  energy  dspace  twotheta  intens   integr  xwidth   ywidth  tilt  rfactor   pearson  xcentroid  ycentroid
     2      392.61676      871.97882    -2     4    -2  -0.33029  -0.10028   0.01911  12.44816   0.11105  53.29161       74406.00      260412.39     1.82228     2.06699     0.00000     0.21697     0.00000   746.59875   746.59875
     4      746.27594      951.31604    -3     3    -1  -0.32082   0.52278   0.02086  11.59407   0.12490  50.69521      108856.00      352423.38     1.77880     1.87265   179.87674     0.23298     0.00000   546.37006   546.37006
    13      991.65723      299.62085    -4     2    -2   0.11541  -0.02279   0.00445   8.25885   0.11084  85.25632       59939.00      104162.38     1.23833     1.56080   179.06831     0.23255     0.00000   282.86597   282.86597
     3      546.01697      225.15207    -3     3    -3   0.12666   0.20028   0.00883   8.45300   0.10446  89.18907       51020.00       75861.38     1.23296     1.23401   121.24158     0.18172     0.00000   991.98486   991.98486
     6     1026.41309      909.55951    -5     3    -1  -0.28226   0.26523   0.01414  14.49395   0.09197  55.43116       49264.00      133222.39     1.64568     1.90713   101.87529     0.25100     0.00000   925.32629   925.32629
     7      924.95996      683.08295    -6     4    -2   0.10069   0.01061   0.00468  16.08341   0.07268  64.05952        2524.00        4389.38     1.13757     1.42301   179.81519     0.09557     0.00000    62.03412    62.03412
    30       61.79669      407.68393    -1     3    -3   0.25027   0.29336   0.01315   7.85998   0.12446  78.64971        6149.00       10741.38     1.11753     1.37029   176.67456     0.16154     0.00000   262.00342   262.00342
     5      426.60452      666.13538    -3     5    -3   0.45939  -0.13267   0.02535  14.36016   0.08292  62.75061       54806.00      142898.39     1.65275     1.86691   106.66011     0.19633     0.00000  1026.73425  1026.73425
    15      648.66687      500.26334    -6     6    -4   0.14598   0.00784   0.00760  18.19190   0.05795  72.04280       17837.00       36872.38     1.44071     1.54320    76.47672     0.22540     0.00000   859.19916   859.19916
    10      668.66687      570.52844    -5     5    -3   0.08698  -0.03313   0.00472  15.64226   0.07079  68.09032       71453.00      103701.38     1.08408     1.48331   179.96318     0.19283     0.00000   669.00372   669.00372
     8      868.05981      257.35907    -5     3    -3   0.10620   0.17721   0.00696  10.82890   0.08280  87.48462       56967.00      252624.39     1.89552     2.69123   175.33813     0.30554     0.00000   426.80408   426.80408
    12      331.58212      270.36295    -4     6    -6  -0.49800  -0.03179   0.02252  15.68281   0.05785  86.21096       37195.00       79390.38     1.30003     1.73914   178.05711     0.25007     0.00000   331.84070   331.84070
     9      282.60623      288.46860    -3     5    -5  -0.42650  -0.02998   0.01894  12.97687   0.07064  85.10100       27447.00       54774.38     1.08951     1.84471     0.00511     0.19835     0.00000   649.00623   649.00623
    19      258.60886      619.59259    -3     7    -5  -0.06105  -0.38487   0.01074  19.09148   0.05964  65.98085       28694.00       56101.38     1.24304     1.68706     7.37970     0.24682     0.00000   129.69012   129.69012
    17      858.84985      567.55426    -7     5    -3   0.16861  -0.27690   0.01125  18.24986   0.05968  69.38965        9230.00       23419.38     1.08453     1.94873   179.92262     0.30296     0.00000   464.02298   464.02298
    32      474.97198      454.85925    -6     8    -6   0.05291   0.04927   0.00315  21.96909   0.04659  74.55522        3227.00        6870.38     1.07842     1.51516     1.12248     0.16882     0.00000   454.98346   454.98346
    20      463.66895      498.18188    -5     7    -5   0.34064  -0.13417   0.01822  19.31561   0.05462  71.98118       16294.00       33493.38     1.17602     1.75987   177.64264     0.22017     0.00000   439.07742   439.07742
    22      721.83289      228.65047    -8     6    -6   0.06262   0.03971   0.00308  18.98073   0.04655  89.11330       28532.00       42946.38     1.18124     1.29839   178.87354     0.20694     0.00000   753.86279   753.86279
    14      129.38194       39.61768    -3     5    -7  -0.21674   0.22509   0.01015  13.62041   0.05948  99.85732       15337.00       27399.38     1.23266     1.46347     5.27487     0.19559     0.00000   258.90378   258.90378
    18      438.70135       20.99341    -6     6    -8   0.42353   0.29038   0.01923  17.13991   0.04649 102.15972       11117.00       21159.38     1.21400     1.48502   179.30754     0.21264     0.00000   722.16718   722.16718
    31     1012.68085      601.61047    -9     5    -3   0.01466  -0.15530   0.00399  21.60275   0.05069  68.95731         576.00        2398.38     1.21616     1.91237   178.58594     0.10367     0.00000   699.02484   699.02484
    16      753.58252      232.70221    -7     5    -5  -0.32749   0.21812   0.01596  16.22840   0.05456  88.87302        1083.00        3463.38     1.56466     1.72565   178.94453     0.10980     0.00000   475.05328   475.05328
    21      145.60522      355.19962    -3     7    -7  -0.05224  -0.04137   0.00252  18.13817   0.05245  81.32995        1413.00        3628.38     1.30083     1.48083   170.03831     0.11147     0.00000  1012.99329  1012.99329
    23      364.74579      259.68860    -5     7    -7  -0.04471  -0.07948   0.00328  18.42437   0.04893  86.88826        8588.00       22270.38     1.25822     1.89212   179.21300     0.18727     0.00000   145.91518   145.91518
    29      784.10266       52.59486   -10     6    -8  -0.01868  -0.11562   0.00363  21.07658   0.03835 100.14990        5002.00       13670.38     1.46656     1.76493    74.04851     0.22281     0.00000   823.14044   823.14044
    34      300.67200       93.01729    -6     8   -10  -0.06475  -0.00595   0.00260  21.53383   0.03834  97.34159         522.00        2764.24     1.23885     2.33164     5.66252     0.52932     0.00000   615.84363   615.84363
    25      919.90338      273.34576    -9     5    -5   0.11685  -0.09978   0.00557  19.04938   0.04744  86.62973        1082.00        4411.38     1.48960     1.81244   168.17151     0.15267     0.00000   784.05786   784.05786
    26       27.57540      162.42917    -3     7    -9   0.31360   0.02715   0.01056  18.66378   0.04597  92.52938         879.00        2671.38     1.13224     1.83839   176.53404     0.10028     0.00000   301.03619   301.03619
    24      822.84924       31.43390    -9     5    -7   0.19203  -0.16462   0.00851  18.39889   0.04356 101.32830       11811.00       19128.38     1.20114     1.28246     1.33774     0.18478     0.00000   365.12650   365.12650
    27      261.67841       78.65874    -5     7    -9  -0.07517  -0.04555   0.00319  18.84956   0.04354  98.10688        4352.00       12952.38     1.61228     1.79062    18.96524     0.20415     0.00000   920.15240   920.15240
    35      698.72272      226.34245    -9     7    -7   0.06062  -0.07593   0.00365  21.74998   0.04058  89.24871           0.00           0.00     0.00000     0.00000     0.00000     0.00000     0.00000     0.00000     0.00000
    28      454.66489       47.77332    -7     7    -9  -0.00043   0.02351   0.00074  19.88984   0.04053 100.53965        4667.00       11565.38     1.38719     1.71655   167.38072     0.18821     0.00000    27.90593    27.90593
    33      971.54742       85.60234   -11     5    -7  -0.35707  -0.30298   0.01554  21.19169   0.03885  97.70601         742.00        2859.38     1.45170     1.57511    25.96581     0.12452     0.00000   971.96533   971.96533
latticeparameters=   0.54325   0.54484   0.54092  89.94836  90.19371  90.25792
dpsx, dpsy: 179.00000 168.38699
dd, xcent, ycent:      150.57201      540.60303      212.87601
pitch,yaw,roll:  -0.22645   0.61642   0.00000
dev1, dev2, pixdev:   0.01228   0.01204   0.25388
deviatoric strain in crystal reference u1 u2 u3 (*10^3)
   0.45937  -2.25845  -1.68393
  -2.25845   3.38531   0.44137
  -1.68393   0.44137  -3.83149
deviatoric strain in sample reference X Y Z (*10^3)
  -0.25986  -0.86967   0.49821
  -0.86967   4.63308   0.17564
   0.49821   0.17564  -4.36004
deviatoric principal strains (*10^3):   4.78392  -0.34235  -4.42839
deviatoric strain principal axes in sample reference:
  -0.16898   0.98557   0.00972
   0.97766   0.16635   0.12851
  -0.12503  -0.03122   0.99166
deviatoric stress in crystal reference u1 u2 u3 (MPa)
       47.56063     -359.13852     -267.77884
     -359.13852      345.12860       70.18651
     -267.77884       70.18651     -388.82010
deviatoric stress in sample reference X Y Z (MPa)
      -38.00989     -200.12672      -26.92596
     -200.12672      568.18994       21.70157
      -26.92596       21.70157     -526.31091
deviatoric principal stresses (MPa):      629.00317      -97.23027     -527.90375
deviatoric stress principal axes in sample reference:
       -0.28820        0.95725        0.02470
       -0.95623       -0.28907        0.04539
        0.05059       -0.01054        0.99866
total strain in sample reference X Y Z (*10^3)
   1.53324  -0.86967   0.49821
  -0.86967   6.42618   0.17564
   0.49821   0.17564  -2.56694
total principal strains (*10^3):   6.57702   1.45075  -2.63529
total strain principal axes in sample reference:
  -0.16897   0.98557   0.00972
   0.97766   0.16635   0.12851
  -0.12503  -0.03122   0.99166
total stress in crystal reference u1 u2 u3 (MPa)
      573.87152     -359.13852     -267.77884
     -359.13852      871.43951       70.18651
     -267.77884       70.18651      137.49081
total stress in sample reference X Y Z (MPa)
      488.30103     -200.12672      -26.92596
     -200.12672     1094.50085       21.70157
      -26.92596       21.70157        0.00000
total principal stresses (MPa):     1155.31409      429.08066       -1.59284
total stress principal axes in sample reference:
       -0.28820        0.95725        0.02470
       -0.95623       -0.28907        0.04539
        0.05058       -0.01054        0.99866
dilatational strain (*10^-3):        1.79310
hydrostatic stress (MPa):      527.60065
Von Mises stress (MPa):     1012.75079
equivalent strain (*10^-3):        5.33002
equivalent stress (MPa):     1012.75079
maximum resolved shear stress:       16.59412
coordinates of a, b, c in X, Y, Z
   0.44443  -0.20245   0.23851
   0.19253   0.50580   0.06498
  -0.24573   0.03226   0.48109
coordinates of a*, b*, c* in X, Y, Z
   1.50608  -0.67796   0.81472
   0.65609   1.70073   0.22108
  -0.83529   0.10640   1.64676
