\\vmware-host\Shared Folders\Desktop\SiHyperlaueFinal_shielded_results\results_00106.STR
Number of grains:       1
Grain no:       1   Grainlist file index:       1    Number of peaks:      32
no   x(exp)  y(exp)  h  k  l xdev  ydev  angdev  energy  dspace  twotheta  intens   integr  xwidth   ywidth  tilt  rfactor   pearson  xcentroid  ycentroid
     2      392.64008      871.98920    -2     4    -2  -0.30039  -0.12675   0.01753  12.44975   0.11103  53.29204       29230.00       94796.05     1.70796     2.03773   178.52138     0.21013     0.00000   746.67505   746.67505
     5      746.37427      951.26794    -3     3    -1  -0.38011   0.50360   0.02367  11.59453   0.12489  50.69808       33185.00       82979.05     1.72045     1.75615   161.46024     0.21440     0.00000  1026.77808  1026.77808
    14      991.68359      299.61917    -4     2    -2   0.14425  -0.09343   0.00616   8.25873   0.11083  85.26064       11889.00       27740.05     1.49333     1.68499    48.78089     0.21955     0.00000   859.20697   859.20697
     4      546.06335      225.14970    -3     3    -3   0.09712   0.19575   0.00786   8.45354   0.10445  89.18953       40100.00      138850.06     1.82128     1.87490    18.37664     0.22554     0.00000   546.37213   546.37213
     7     1026.46375      909.49170    -5     3    -1  -0.26924   0.25236   0.01348  14.49371   0.09196  55.43514       30327.00      148081.06     1.90320     2.90686   175.61699     0.30923     0.00000   426.88077   426.88077
     6      925.01605      683.00995    -6     4    -2   0.09302   0.02124   0.00432  16.08348   0.07267  64.06303       34114.00       89718.05     1.62498     1.94150    32.80406     0.23444     0.00000   925.34613   925.34613
     3      426.64633      666.11151    -3     5    -3   0.46061  -0.10941   0.02537  14.36188   0.08291  62.75053       24195.00       37788.05     1.23813     1.24355   154.99895     0.18497     0.00000   992.02893   992.02893
    12      648.66724      500.20706    -6     6    -4   0.17388   0.04174   0.00913  18.19306   0.05794  72.04420       30610.00       52110.05     1.21528     1.54638   179.47145     0.21297     0.00000   282.88861   282.88861
     8      668.66687      570.49396    -5     5    -3   0.11743  -0.02605   0.00628  15.64322   0.07078  68.09196       19109.00       40821.05     1.08785     1.87887     0.00000     0.19085     0.00000   649.00043   649.00043
    13      868.11560      257.29199    -5     3    -3   0.08616   0.18710   0.00673  10.82894   0.08279  87.48817       12290.00       21294.05     1.19595     1.44820     3.41037     0.17779     0.00000   258.93094   258.93094
     9      331.59583      270.36053    -4     6    -6  -0.48202  -0.00377   0.02176  15.68447   0.05784  86.20933       45035.00       67637.05     1.08425     1.54555   179.88084     0.19021     0.00000   669.00238   669.00238
    10      282.61496      288.47598    -3     5    -5  -0.39977  -0.00553   0.01772  12.97836   0.07064  85.09899       13092.00       38440.05     1.81927     1.84249   172.98538     0.20695     0.00000   868.34448   868.34448
    19      258.62357      619.59344    -3     7    -5  -0.01629  -0.36579   0.00965  19.09426   0.05963  65.97943       12058.00       24414.05     1.17480     1.72436   177.68604     0.21084     0.00000   439.07910   439.07910
    17      858.89960      567.49884    -7     5    -3   0.15892  -0.27349   0.01084  18.25018   0.05967  69.39275        8188.00       16842.05     1.23833     1.54348   179.09079     0.21238     0.00000   722.14868   722.14868
    31      475.06198      454.83554    -6     8    -6  -0.00626   0.07640   0.00233  21.97128   0.04659  74.55500        2449.00        5576.06     1.08235     1.51620   179.14490     0.15607     0.00000   455.01306   455.01306
    20      463.66980      498.15213    -5     7    -5   0.37323  -0.10082   0.01975  19.31764   0.05461  71.98094        1128.00        3190.05     1.34471     1.59742   171.88832     0.10570     0.00000  1012.99792  1012.99792
    21      721.86237      228.63029    -8     6    -6   0.05462   0.02446   0.00256  18.98130   0.04655  89.11558       19911.00       29099.05     1.15898     1.26186   179.11267     0.18629     0.00000   753.87811   753.87811
    15      129.38139       39.62820    -3     5    -7  -0.18944   0.26769   0.01036  13.62175   0.05947  99.85441         804.00        2901.05     1.48126     1.81468   176.74240     0.10355     0.00000   475.04550   475.04550
    18      438.70044       20.96387    -6     6    -8   0.42888   0.32278   0.01989  17.14095   0.04649 102.15955       15683.00       30521.05     1.21881     1.68744     6.14880     0.21802     0.00000   129.74229   129.74229
    30     1012.70209      601.53778    -9     5    -3   0.05384  -0.15015   0.00456  21.60250   0.05069  68.96128         466.00        2019.06     1.26245     1.96521     3.62990     0.09453     0.00000   699.01160   699.01160
    16      753.59686      232.69118    -7     5    -5  -0.31809   0.18881   0.01521  16.22879   0.05456  88.87561        7358.00       18016.05     1.09070     1.94686     0.00168     0.29919     0.00000   464.01721   464.01721
    22      145.61330      355.18613    -3     7    -7  -0.00322   0.01753   0.00052  18.14062   0.05244  81.32713        6269.00       16819.05     1.24900     1.90343   179.12933     0.17381     0.00000   145.92242   145.92242
    23      364.75983      259.68436    -5     7    -7  -0.03240  -0.05424   0.00229  18.42621   0.04893  86.88691        8769.00       14672.05     1.19988     1.32115   179.60690     0.17280     0.00000   365.08536   365.08536
    29      784.15070       52.54106   -10     6    -8  -0.04629  -0.11909   0.00412  21.07673   0.03835 100.15334        4737.00        8395.05     1.12149     1.35952   176.41847     0.14697     0.00000   262.01132   262.01132
    32      300.68631       93.03621    -6     8   -10  -0.06197   0.00359   0.00249  21.53572   0.03833  97.33988         592.00        2269.05     1.34711     1.80718    12.39319     0.10358     0.00000   971.97223   971.97223
    25      919.96631      273.24521    -9     5    -5   0.09701  -0.06322   0.00433  19.04930   0.04744  86.63364         739.00        2485.05     1.14265     1.86918   177.26222     0.10213     0.00000   300.98111   300.98111
    26       27.57655      162.45477    -3     7    -9   0.36675   0.06671   0.01245  18.66604   0.04597  92.52582        3045.00       10168.05     1.73912     1.84775   104.19104     0.17252     0.00000   920.13666   920.13666
    24      822.88141       31.36346    -9     5    -7   0.18425  -0.16053   0.00820  18.39888   0.04356 101.33219         765.00        3486.05     1.67271     1.89980    79.05214     0.13127     0.00000   784.11163   784.11163
    27      261.68015       78.66119    -5     7    -9  -0.05831  -0.01391   0.00229  18.85127   0.04354  98.10487        3578.00        8710.05     1.39329     1.67512   168.11681     0.16113     0.00000    27.93170    27.93170
    35      698.74091      226.30144    -9     7    -7   0.06252  -0.06666   0.00353  21.75073   0.04057  89.25077           0.00           0.00     0.00000     0.00000     0.00000     0.00000     0.00000     0.00000     0.00000
    28      454.66684       47.76585    -7     7    -9   0.00390   0.03257   0.00103  19.89105   0.04053 100.53956        3438.00       10389.05     1.61151     1.75689    69.43925     0.19911     0.00000   823.12488   823.12488
    33      971.56848       85.58905   -11     5    -7  -0.32863  -0.37634   0.01616  21.19128   0.03885  97.71086         610.00        2434.22     1.36405     1.79847    16.01220     0.11308     0.00000   971.97046   971.97046
latticeparameters=   0.54329   0.54478   0.54094  89.94629  90.18999  90.25686
dpsx, dpsy: 179.00000 168.38699
dd, xcent, ycent:      150.57201      540.60303      212.87601
pitch,yaw,roll:  -0.22645   0.61642   0.00000
dev1, dev2, pixdev:   0.01228   0.01210   0.24873
deviatoric strain in crystal reference u1 u2 u3 (*10^3)
   0.53210  -2.24891  -1.65167
  -2.24891   3.27423   0.45949
  -1.65167   0.45949  -3.79363
deviatoric strain in sample reference X Y Z (*10^3)
  -0.24155  -0.92447   0.52889
  -0.92447   4.54174   0.16110
   0.52889   0.16110  -4.28748
deviatoric principal strains (*10^3):   4.71461  -0.33759  -4.36432
deviatoric strain principal axes in sample reference:
  -0.18266   0.98315   0.00686
   0.97397   0.17999   0.13776
  -0.13420  -0.03185   0.99044
deviatoric stress in crystal reference u1 u2 u3 (MPa)
       54.92735     -357.62146     -262.64877
     -357.62146      333.80154       73.06809
     -262.64877       73.06809     -384.99994
deviatoric stress in sample reference X Y Z (MPa)
      -37.51899     -205.39679      -22.39923
     -205.39679      558.49243       20.68506
      -22.39923       20.68506     -517.24451
deviatoric principal stresses (MPa):      623.03113     -100.88936     -518.41278
deviatoric stress principal axes in sample reference:
       -0.29756        0.95442        0.02316
       -0.95379       -0.29825        0.03649
        0.04174       -0.01123        0.99907
total strain in sample reference X Y Z (*10^3)
   1.52066  -0.92447   0.52889
  -0.92447   6.30395   0.16110
   0.52889   0.16110  -2.52527
total principal strains (*10^3):   6.47683   1.42462  -2.60211
total strain principal axes in sample reference:
  -0.18265   0.98315   0.00686
   0.97397   0.17999   0.13776
  -0.13420  -0.03185   0.99044
total stress in crystal reference u1 u2 u3 (MPa)
      572.17188     -357.62146     -262.64877
     -357.62146      851.04602       73.06809
     -262.64877       73.06809      132.24458
total stress in sample reference X Y Z (MPa)
      479.72552     -205.39679      -22.39923
     -205.39679     1075.73694       20.68506
      -22.39923       20.68506        0.00000
total principal stresses (MPa):     1140.27563      416.35516       -1.16828
total stress principal axes in sample reference:
       -0.29756        0.95442        0.02316
       -0.95379       -0.29825        0.03649
        0.04174       -0.01123        0.99907
dilatational strain (*10^-3):        1.76221
hydrostatic stress (MPa):      518.48749
Von Mises stress (MPa):     1000.32019
equivalent strain (*10^-3):        5.25286
equivalent stress (MPa):     1000.32019
maximum resolved shear stress:       23.28004
coordinates of a, b, c in X, Y, Z
   0.44451  -0.20240   0.23859
   0.19246   0.50581   0.06495
  -0.24575   0.03227   0.48114
coordinates of a*, b*, c* in X, Y, Z
   1.50617  -0.67771   0.81476
   0.65599   1.70115   0.22095
  -0.83544   0.10643   1.64675
