\\vmware-host\Shared Folders\Desktop\SiHyperlaueFinal_shielded_results\results_00139.STR
Number of grains:       1
Grain no:       1   Grainlist file index:       1    Number of peaks:      32
no   x(exp)  y(exp)  h  k  l xdev  ydev  angdev  energy  dspace  twotheta  intens   integr  xwidth   ywidth  tilt  rfactor   pearson  xcentroid  ycentroid
     4      392.64148      872.04144    -2     4    -2  -0.29463  -0.12119   0.01718  12.44949   0.11104  53.28960       34912.00      128318.91     1.83450     1.88351     3.47192     0.22289     0.00000   546.38379   546.38379
     7      746.40155      951.32355    -3     3    -1  -0.38947   0.48512   0.02400  11.59424   0.12489  50.69680       26842.00      133413.91     1.90890     2.96636   176.38225     0.30863     0.00000   426.90714   426.90714
    13      991.69012      299.60849    -4     2    -2   0.14515  -0.10307   0.00632   8.25853   0.11083  85.26184       11764.00       20265.91     1.18996     1.43656     3.45338     0.17552     0.00000   258.93332   258.93332
     3      546.08441      225.18307    -3     3    -3   0.08164   0.15899   0.00646   8.45327   0.10445  89.18976       22480.00       36061.91     1.25186     1.26591    16.86536     0.18962     0.00000   992.03827   992.03827
     6     1026.48608      909.48969    -5     3    -1  -0.27049   0.25566   0.01356  14.49321   0.09196  55.43537       29740.00       80558.91     1.63603     1.95454    20.59467     0.23949     0.00000   925.35242   925.35242
     5      925.03229      683.00922    -6     4    -2   0.09384   0.01969   0.00436  16.08292   0.07267  64.06331       27046.00       68127.91     1.57655     1.87407   162.21979     0.22556     0.00000  1026.79224  1026.79224
     2      426.66031      666.13538    -3     5    -3   0.45408  -0.10394   0.02501  14.36139   0.08291  62.74900       21747.00       66591.91     1.66525     2.04167   178.64659     0.20356     0.00000   746.70483   746.70483
    12      648.66711      500.20578    -6     6    -4   0.18516   0.04755   0.00973  18.19237   0.05794  72.04397       28909.00       48244.91     1.20871     1.50598   179.09724     0.21104     0.00000   282.89230   282.89230
     8      668.66699      570.49078    -5     5    -3   0.12974  -0.01495   0.00690  15.64264   0.07079  68.09157       17941.00       38715.91     1.08973     1.88249     0.00000     0.18845     0.00000   649.01093   649.01093
    14      868.14008      257.26611    -5     3    -3   0.06914   0.19806   0.00668  10.82866   0.08280  87.48909       10923.00       26429.91     1.61704     1.66327    74.48771     0.22101     0.00000   859.20435   859.20435
     9      331.60110      270.38782    -4     6    -6  -0.48458  -0.02564   0.02190  15.68391   0.05784  86.20899       41630.00       62930.91     1.08435     1.54723   179.90073     0.19259     0.00000   668.99744   668.99744
    10      282.61792      288.49609    -3     5    -5  -0.40086  -0.01773   0.01778  12.97789   0.07064  85.09849       11419.00       34348.91     1.72337     1.97119   120.11311     0.19270     0.00000   868.34814   868.34814
    19      258.62564      619.60193    -3     7    -5  -0.01611  -0.34128   0.00901  19.09361   0.05963  65.97769       11587.00       23512.91     1.17795     1.72175   177.37589     0.21105     0.00000   439.06628   439.06628
    17      858.92017      567.47925    -7     5    -3   0.15300  -0.25751   0.01033  18.24954   0.05968  69.39306        7970.00       16618.91     1.23106     1.59015   178.69501     0.20833     0.00000   722.17474   722.17474
    31      475.05823      454.84430    -6     8    -6   0.00467   0.07726   0.00236  21.97042   0.04659  74.55441        2474.00        5470.91     1.08128     1.53142     1.29811     0.14881     0.00000   455.02618   455.02618
    20      463.67175      498.15897    -5     7    -5   0.37858  -0.09470   0.02001  19.31689   0.05461  71.98016        1110.00        3090.91     1.33615     1.59710   171.53104     0.10273     0.00000  1013.01410  1013.01410
    21      721.88763      228.63142    -8     6    -6   0.03632   0.01383   0.00168  18.98077   0.04655  89.11620       19739.00       28485.91     1.15320     1.25107   179.23264     0.18169     0.00000   753.89978   753.89978
    15      129.37285       39.63182    -3     5    -7  -0.18150   0.26901   0.01021  13.62141   0.05947  99.85412         838.00        3014.91     1.49805     1.83122     0.00000     0.10450     0.00000   475.04303   475.04303
    18      438.70258       20.96219    -6     6    -8   0.42832   0.32030   0.01983  17.14056   0.04649 102.15981       14952.00       29202.91     1.21666     1.70100     5.87181     0.21027     0.00000   129.72981   129.72981
    30     1012.70917      601.54828    -9     5    -3   0.06213  -0.17368   0.00527  21.60178   0.05069  68.96208         453.00        2115.91     1.29659     1.95341     1.31201     0.09870     0.00000   699.00372   699.00372
    16      753.60101      232.68692    -7     5    -5  -0.31512   0.18247   0.01501  16.22834   0.05456  88.87629        7008.00       17378.91     1.09458     1.94972     0.11875     0.29887     0.00000   464.02188   464.02188
    22      145.61903      355.23471    -3     7    -7  -0.00976  -0.01472   0.00060  18.13999   0.05245  81.32618        6489.00       16147.91     1.22586     1.88743   179.83276     0.16751     0.00000   145.93275   145.93275
    23      364.76526      259.68512    -5     7    -7  -0.03459  -0.05116   0.00229  18.42556   0.04893  86.88667        8484.00       14593.91     1.20520     1.33269     0.87843     0.17912     0.00000   365.09418   365.09418
    29      784.13947       52.54998   -10     6    -8  -0.03299  -0.14242   0.00458  21.07636   0.03835 100.15422        4682.00        8402.91     1.11619     1.35942   176.66573     0.15130     0.00000   262.00937   262.00937
    32      300.68301       92.98088    -6     8   -10  -0.05754   0.05983   0.00299  21.53512   0.03834  97.33982         546.00        2330.91     1.33453     1.88190    13.55993     0.11171     0.00000   971.97516   971.97516
    24      919.93787      273.23279    -9     5    -5   0.13295  -0.06787   0.00571  19.04883   0.04744  86.63467         782.00        3459.91     1.54760     1.83341   170.41161     0.12882     0.00000   784.09259   784.09259
    26       27.57950      162.47182    -3     7    -9   0.36176   0.06093   0.01226  18.66550   0.04597  92.52518        2998.00       10242.91     1.66384     1.89806    18.45208     0.18008     0.00000   920.13300   920.13300
    25      822.88934       31.34117    -9     5    -7   0.17728  -0.15414   0.00789  18.39861   0.04356 101.33314         786.00        2603.91     1.14873     1.82242   176.39224     0.10925     0.00000   301.00955   301.00955
    27      261.67920       78.66749    -5     7    -9  -0.05672  -0.01844   0.00226  18.85076   0.04354  98.10476        3602.00        8807.91     1.39550     1.63383   166.87700     0.17069     0.00000    27.94265    27.94265
    34      698.77136      226.26003    -9     7    -7   0.03890  -0.03395   0.00206  21.75010   0.04057  89.25133         522.00        2764.24     1.23885     2.33164     5.66252     0.52932     0.00000   615.84363   615.84363
    28      454.66605       47.76589    -7     7    -9   0.00673   0.02823   0.00093  19.89057   0.04053 100.53983        3338.00       10017.91     1.48865     1.91625    82.88416     0.19659     0.00000   823.11755   823.11755
    33      971.57330       85.53542   -11     5    -7  -0.33315  -0.34441   0.01564  21.19098   0.03885  97.71211         592.00        2329.02     1.30070     1.83220    10.00210     0.10838     0.00000   971.97760   971.97760
latticeparameters=   0.54328   0.54481   0.54093  89.94922  90.19282  90.25906
dpsx, dpsy: 179.00000 168.38699
dd, xcent, ycent:      150.57201      540.60303      212.87601
pitch,yaw,roll:  -0.22645   0.61642   0.00000
dev1, dev2, pixdev:   0.01224   0.01205   0.24638
deviatoric strain in crystal reference u1 u2 u3 (*10^3)
   0.51490  -2.26830  -1.67621
  -2.26830   3.32392   0.43386
  -1.67621   0.43386  -3.82584
deviatoric strain in sample reference X Y Z (*10^3)
  -0.23827  -0.90910   0.51308
  -0.90910   4.59359   0.14745
   0.51308   0.14745  -4.34234
deviatoric principal strains (*10^3):   4.75929  -0.33328  -4.41303
deviatoric strain principal axes in sample reference:
  -0.17838   0.98394   0.00588
   0.97558   0.17608   0.13133
  -0.12819  -0.02917   0.99132
deviatoric stress in crystal reference u1 u2 u3 (MPa)
       53.19502     -360.70459     -266.55063
     -360.70459      338.87286       68.99283
     -266.55063       68.99283     -388.25745
deviatoric stress in sample reference X Y Z (MPa)
      -36.30740     -204.24042      -25.42797
     -204.24042      564.45850       18.11389
      -25.42797       18.11389     -524.34070
deviatoric principal stresses (MPa):      627.85028      -98.32203     -525.71783
deviatoric stress principal axes in sample reference:
       -0.29462        0.95537        0.02152
       -0.95437       -0.29531        0.04441
        0.04878       -0.00746        0.99878
total strain in sample reference X Y Z (*10^3)
   1.54812  -0.90910   0.51308
  -0.90910   6.37998   0.14745
   0.51308   0.14745  -2.55596
total principal strains (*10^3):   6.54568   1.45311  -2.62664
total strain principal axes in sample reference:
  -0.17838   0.98394   0.00588
   0.97558   0.17608   0.13133
  -0.12819  -0.02917   0.99132
total stress in crystal reference u1 u2 u3 (MPa)
      577.53571     -360.70459     -266.55063
     -360.70459      863.21356       68.99283
     -266.55063       68.99283      136.08324
total stress in sample reference X Y Z (MPa)
      488.03329     -204.24042      -25.42797
     -204.24042     1088.79919       18.11389
      -25.42797       18.11389        0.00000
total principal stresses (MPa):     1152.19104      426.01868       -1.37715
total stress principal axes in sample reference:
       -0.29462        0.95537        0.02152
       -0.95437       -0.29531        0.04441
        0.04878       -0.00746        0.99878
dilatational strain (*10^-3):        1.78639
hydrostatic stress (MPa):      525.61084
Von Mises stress (MPa):     1010.12695
equivalent strain (*10^-3):        5.30639
equivalent stress (MPa):     1010.12695
maximum resolved shear stress:       20.43898
coordinates of a, b, c in X, Y, Z
   0.44449  -0.20241   0.23857
   0.19246   0.50583   0.06497
  -0.24577   0.03224   0.48110
coordinates of a*, b*, c* in X, Y, Z
   1.50614  -0.67771   0.81482
   0.65593   1.70102   0.22110
  -0.83545   0.10637   1.64678
