\\vmware-host\Shared Folders\Desktop\SiHyperlaueFinal_shielded_results\results_00132.STR
Number of grains:       1
Grain no:       1   Grainlist file index:       1    Number of peaks:      32
no   x(exp)  y(exp)  h  k  l xdev  ydev  angdev  energy  dspace  twotheta  intens   integr  xwidth   ywidth  tilt  rfactor   pearson  xcentroid  ycentroid
     4      392.64154      872.04230    -2     4    -2  -0.29201  -0.11971   0.01703  12.44948   0.11104  53.28949       35364.00      130621.33     1.83427     1.88520    11.11434     0.22149     0.00000   546.38226   546.38226
     6      746.39832      951.32813    -3     3    -1  -0.39144   0.48261   0.02408  11.59434   0.12489  50.69668       31270.00       83059.33     1.73692     1.75329    69.98493     0.25956     0.00000   925.34869   925.34869
    13      991.68878      299.61169    -4     2    -2   0.13070  -0.10104   0.00581   8.25861   0.11083  85.26149       11719.00       20305.33     1.18996     1.44062     3.01481     0.17604     0.00000   258.94263   258.94263
     3      546.08423      225.18633    -3     3    -3   0.08174   0.16071   0.00650   8.45330   0.10445  89.18943       22892.00       36437.33     1.24978     1.25225    45.92370     0.19084     0.00000   992.03271   992.03271
     7     1026.47510      909.50281    -5     3    -1  -0.27622   0.23646   0.01363  14.49334   0.09196  55.43538       27687.00      136094.33     1.91004     2.95552   175.93787     0.30931     0.00000   426.90161   426.90161
     5      924.98694      682.97430    -6     4    -2   0.12701   0.05563   0.00596  16.08309   0.07267  64.06314       29025.00       72485.33     1.60193     1.85870   157.11311     0.23051     0.00000  1026.78345  1026.78345
     2      426.65808      666.13409    -3     5    -3   0.45853  -0.10002   0.02525  14.36139   0.08291  62.74886       24116.00       73640.33     1.66902     2.03171   178.54549     0.20821     0.00000   746.69806   746.69806
    12      648.66724      500.21353    -6     6    -4   0.18256   0.04481   0.00958  18.19251   0.05794  72.04367       29541.00       48840.33     1.20806     1.49589   178.98586     0.20899     0.00000   282.89673   282.89673
     8      668.66724      570.49310    -5     5    -3   0.12650  -0.01248   0.00672  15.64277   0.07079  68.09129       18522.00       39544.33     1.09033     1.87285   179.95723     0.19152     0.00000   649.00562   649.00562
    14      868.12091      257.30426    -5     3    -3   0.07803   0.16654   0.00602  10.82877   0.08280  87.48867       11069.00       26295.33     1.50841     1.69965    63.62348     0.21540     0.00000   859.21576   859.21576
     9      331.59705      270.38535    -4     6    -6  -0.47717  -0.02200   0.02156  15.68387   0.05784  86.20891       42522.00       64018.33     1.08480     1.54275   179.99565     0.19220     0.00000   669.00043   669.00043
    10      282.61835      288.50183    -3     5    -5  -0.39752  -0.02331   0.01765  12.97783   0.07064  85.09848       12123.00       35505.33     1.78730     1.86298   147.38033     0.20011     0.00000   868.34430   868.34430
    19      258.62610      619.60370    -3     7    -5  -0.01272  -0.34338   0.00904  19.09349   0.05963  65.97768       11835.00       24047.33     1.17168     1.72301   177.54475     0.21245     0.00000   439.08853   439.08853
    17      858.91248      567.49341    -7     5    -3   0.15117  -0.26809   0.01047  18.24973   0.05968  69.39279        7792.00       16120.33     1.24212     1.58878   178.76273     0.20110     0.00000   722.16602   722.16602
    31      475.08347      454.85620    -6     8    -6  -0.01915   0.06879   0.00229  21.97047   0.04659  74.55420        2434.00        5228.33     1.08452     1.49330   178.72371     0.14340     0.00000   455.00528   455.00528
    20      463.67093      498.16406    -5     7    -5   0.38102  -0.09656   0.02014  19.31692   0.05461  71.97997        1071.00        3084.33     1.34309     1.60236   171.39258     0.10499     0.00000  1013.01428  1013.01428
    22      721.88580      228.63148    -8     6    -6   0.03325   0.02047   0.00163  18.98092   0.04655  89.11577        6381.00       16392.33     1.22687     1.89505     0.00000     0.17020     0.00000   145.93321   145.93321
    15      129.38954       39.63197    -3     5    -7  -0.19382   0.26614   0.01043  13.62130   0.05947  99.85430         769.00        2978.33     1.52420     1.85089   177.16853     0.10703     0.00000   475.05109   475.05109
    18      438.69983       20.96253    -6     6    -8   0.43296   0.32395   0.02005  17.14057   0.04649 102.15957       15074.00       28884.33     1.21233     1.67744     6.14712     0.21310     0.00000   129.73816   129.73816
    30     1012.70996      601.52917    -9     5    -3   0.04499  -0.15446   0.00446  21.60201   0.05069  68.96192         457.00        2051.33     1.32759     1.95993     8.41293     0.09735     0.00000   699.01721   699.01721
    16      753.60120      232.68803    -7     5    -5  -0.32126   0.18817   0.01533  16.22848   0.05456  88.87585        7035.00       17489.33     1.09178     1.94975     0.03140     0.29950     0.00000   464.02008   464.02008
    21      145.62094      355.21463    -3     7    -7  -0.00750   0.00272   0.00032  18.13981   0.05245  81.32632       19712.00       28495.33     1.15495     1.25181   179.17032     0.18153     0.00000   753.89307   753.89307
    23      364.76706      259.68747    -5     7    -7  -0.03339  -0.05167   0.00226  18.42552   0.04893  86.88655        8340.00       14197.33     1.20266     1.33713     0.30132     0.17410     0.00000   365.10278   365.10278
    29      784.12018       52.56982   -10     6    -8  -0.02101  -0.15371   0.00479  21.07653   0.03835 100.15371        4688.00        8331.33     1.11535     1.33324   178.80753     0.15053     0.00000   262.01852   262.01852
    32      300.69296       92.98872    -6     8   -10  -0.06383   0.05291   0.00307  21.53504   0.03834  97.33978         575.00        2304.33     1.39099     1.71008    19.46229     0.10884     0.00000   971.97198   971.97198
    24      919.94354      273.23593    -9     5    -5   0.11479  -0.06480   0.00500  19.04902   0.04744  86.63427         806.00        3514.33     1.50497     1.81931   166.16640     0.13708     0.00000   784.07910   784.07910
    26       27.58170      162.47113    -3     7    -9   0.36345   0.05663   0.01230  18.66528   0.04597  92.52547        2914.00       10097.33     1.67846     1.89028    15.65511     0.17664     0.00000   920.13837   920.13837
    25      822.88403       31.32928    -9     5    -7   0.17376  -0.13323   0.00746  18.39876   0.04356 101.33263         752.00        2409.33     1.15963     1.78976   175.80777     0.09945     0.00000   301.01373   301.01373
    27      261.68094       78.66913    -5     7    -9  -0.05450  -0.01996   0.00218  18.85067   0.04354  98.10477        3661.00        8897.33     1.39119     1.64101   165.38164     0.16762     0.00000    27.93039    27.93039
    35      698.75140      226.29755    -9     7    -7   0.05470  -0.06490   0.00322  21.75027   0.04057  89.25091           0.00           0.00     0.00000     0.00000     0.00000     0.00000     0.00000     0.00000     0.00000
    28      454.66644       47.75163    -7     7    -9   0.00799   0.04666   0.00150  19.89060   0.04053 100.53957        3289.00        9985.33     1.51179     1.92390    73.77099     0.18974     0.00000   823.12988   823.12988
    33      971.54565       85.54544   -11     5    -7  -0.32073  -0.34579   0.01534  21.19117   0.03885  97.71165         615.00        2440.83     1.37278     1.71477    15.85652     0.11131     0.00000   971.99982   971.99982
latticeparameters=   0.54328   0.54481   0.54093  89.95010  90.19351  90.25755
dpsx, dpsy: 179.00000 168.38699
dd, xcent, ycent:      150.57201      540.60303      212.87601
pitch,yaw,roll:  -0.22645   0.61642   0.00000
dev1, dev2, pixdev:   0.01225   0.01205   0.24610
deviatoric strain in crystal reference u1 u2 u3 (*10^3)
   0.50846  -2.25507  -1.68226
  -2.25507   3.32775   0.42625
  -1.68226   0.42625  -3.82322
deviatoric strain in sample reference X Y Z (*10^3)
  -0.22691  -0.89594   0.50805
  -0.89594   4.58632   0.14929
   0.50805   0.14929  -4.34643
deviatoric principal strains (*10^3):   4.74804  -0.31946  -4.41561
deviatoric strain principal axes in sample reference:
  -0.17661   0.98426   0.00629
   0.97612   0.17432   0.12961
  -0.12648  -0.02903   0.99154
deviatoric stress in crystal reference u1 u2 u3 (MPa)
       52.54033     -358.60126     -267.51346
     -358.60126      339.26169       67.78252
     -267.51346       67.78252     -387.99179
deviatoric stress in sample reference X Y Z (MPa)
      -34.31431     -202.32967      -26.04334
     -202.32967      563.16510       18.31790
      -26.04334       18.31790     -525.04053
deviatoric principal stresses (MPa):      625.78369      -95.49722     -526.47620
deviatoric stress principal axes in sample reference:
       -0.29378        0.95562        0.02186
       -0.95458       -0.29449        0.04532
        0.04974       -0.00755        0.99873
total strain in sample reference X Y Z (*10^3)
   1.56186  -0.89594   0.50805
  -0.89594   6.37510   0.14929
   0.50805   0.14929  -2.55766
total principal strains (*10^3):   6.53682   1.46932  -2.62683
total strain principal axes in sample reference:
  -0.17661   0.98426   0.00629
   0.97612   0.17432   0.12961
  -0.12648  -0.02903   0.99154
total stress in crystal reference u1 u2 u3 (MPa)
      577.58087     -358.60126     -267.51346
     -358.60126      864.30225       67.78252
     -267.51346       67.78252      137.04877
total stress in sample reference X Y Z (MPa)
      490.72626     -202.32967      -26.04334
     -202.32967     1088.20569       18.31790
      -26.04334       18.31790        0.00000
total principal stresses (MPa):     1150.82422      429.54333       -1.43567
total stress principal axes in sample reference:
       -0.29378        0.95562        0.02186
       -0.95458       -0.29449        0.04532
        0.04974       -0.00755        0.99873
dilatational strain (*10^-3):        1.78877
hydrostatic stress (MPa):      526.31061
Von Mises stress (MPa):     1008.38782
equivalent strain (*10^-3):        5.30053
equivalent stress (MPa):     1008.38782
maximum resolved shear stress:       19.91716
coordinates of a, b, c in X, Y, Z
   0.44448  -0.20241   0.23857
   0.19247   0.50582   0.06497
  -0.24578   0.03224   0.48110
coordinates of a*, b*, c* in X, Y, Z
   1.50611  -0.67775   0.81484
   0.65592   1.70101   0.22111
  -0.83544   0.10638   1.64677
