\\vmware-host\Shared Folders\Desktop\SiHyperlaueFinal_shielded_results\results_00094.STR
Number of grains:       1
Grain no:       1   Grainlist file index:       1    Number of peaks:      33
no   x(exp)  y(exp)  h  k  l xdev  ydev  angdev  energy  dspace  twotheta  intens   integr  xwidth   ywidth  tilt  rfactor   pearson  xcentroid  ycentroid
     2      392.59900      871.95990    -2     4    -2  -0.32503  -0.10691   0.01884  12.44806   0.11104  53.29273       33515.00      125551.22     1.81416     2.04282   104.81508     0.18721     0.00000   746.59772   746.59772
     5      746.21198      951.15729    -3     3    -1  -0.26819   0.57529   0.01892  11.59332   0.12490  50.69918       37140.00       97935.22     1.61364     1.95262    76.99078     0.22941     0.00000  1026.74768  1026.74768
    13      991.67053      299.60318    -4     2    -2   0.11247  -0.07101   0.00478   8.25846   0.11084  85.26015       33922.00       61146.21     1.29282     1.55324   178.95116     0.22706     0.00000   282.85184   282.85184
     3      545.95453      225.12576    -3     3    -3   0.17829   0.20048   0.01060   8.45275   0.10446  89.19077       27032.00       43640.21     1.25448     1.27778     4.93378     0.19435     0.00000   992.00647   992.00647
     7     1026.42029      909.45544    -5     3    -1  -0.29050   0.23781   0.01425  14.49274   0.09197  55.43623         353.00        1283.21     1.24639     1.36176   173.70757     0.06858     0.00000    61.99552    61.99552
     6      924.97260      682.98737    -6     4    -2   0.08522   0.01650   0.00396  16.08242   0.07268  64.06383       40196.00      100679.22     1.71018     1.79156   147.56427     0.25137     0.00000   925.32813   925.32813
    36       61.74499      407.70465    -1     3    -3   0.28589   0.30070   0.01440   7.86000   0.12446  78.64824           0.00           0.00     0.00000     0.00000     0.00000     0.00000     0.00000     0.00000     0.00000
     4      426.57578      666.16772    -3     5    -3   0.47510  -0.18551   0.02636  14.36000   0.08292  62.75170       57420.00      169017.22     1.69919     1.86344   170.40648     0.24007     0.00000   546.32404   546.32404
    14      648.66718      500.19788    -6     6    -4   0.13551   0.02987   0.00710  18.19131   0.05795  72.04532       12727.00       22738.21     1.23765     1.44347     6.47983     0.19100     0.00000   258.91794   258.91794
     8      668.66693      570.48578    -5     5    -3   0.07664  -0.04069   0.00424  15.64170   0.07079  68.09307       36386.00      167554.22     1.89824     2.73102   177.83186     0.29797     0.00000   426.83371   426.83371
    12      868.04034      257.24542    -5     3    -3   0.12857   0.23542   0.00893  10.82843   0.08280  87.48801       26441.00       58584.21     1.34912     1.74488   177.74350     0.24601     0.00000   331.82373   331.82373
    10      331.56174      270.35989    -4     6    -6  -0.49303  -0.03274   0.02229  15.68255   0.05785  86.21122       49709.00       75281.22     1.08488     1.55824     0.04750     0.19385     0.00000   669.00525   669.00525
     9      282.58463      288.47260    -3     5    -5  -0.42084  -0.03258   0.01870  12.97670   0.07064  85.10092       20247.00       43615.21     1.08910     1.88238     0.00000     0.19156     0.00000   649.01465   649.01465
    19      258.60754      619.59351    -3     7    -5  -0.07263  -0.37917   0.01082  19.09157   0.05964  65.98059       16790.00       34684.21     1.23166     1.76542     5.96556     0.21821     0.00000   129.69504   129.69504
    17      858.87097      567.48956    -7     5    -3   0.14347  -0.28366   0.01052  18.24893   0.05968  69.39346        7805.00       19161.21     1.08863     1.94839     0.12652     0.29943     0.00000   464.01434   464.01434
    31      474.99921      454.82584    -6     8    -6   0.01280   0.06240   0.00202  21.96870   0.04659  74.55646         480.00        2090.22     1.23353     1.96788     5.95081     0.09697     0.00000   699.01721   699.01721
    20      463.67004      498.15833    -5     7    -5   0.32654  -0.13053   0.01748  19.31530   0.05462  71.98237       12901.00       26124.21     1.16976     1.72022   177.74384     0.21746     0.00000   439.09039   439.09039
    22      721.82794      228.63441    -8     6    -6   0.06323   0.01321   0.00286  18.98003   0.04655  89.11602       21021.00       31695.21     1.15721     1.32271   179.37148     0.19307     0.00000   753.87738   753.87738
    15      129.31760       39.62384    -3     5    -7  -0.17615   0.22450   0.00910  13.62006   0.05948  99.85688       13206.00       29699.21     1.55750     1.60688   157.85568     0.22406     0.00000   859.18750   859.18750
    18      438.69888       20.96108    -6     6    -8   0.41209   0.30100   0.01897  17.13933   0.04649 102.16103        8905.00       17370.21     1.23015     1.47480   178.94458     0.20861     0.00000   722.15442   722.15442
    30     1012.70795      601.51929    -9     5    -3  -0.00875  -0.15172   0.00378  21.60146   0.05069  68.96173        5014.00        8790.21     1.11640     1.36332   177.08273     0.14613     0.00000   262.00092   262.00092
    16      753.57220      232.68932    -7     5    -5  -0.32010   0.18564   0.01525  16.22777   0.05456  88.87590         888.00        3034.22     1.49581     1.75258   172.81491     0.11041     0.00000   475.05310   475.05310
    21      145.60321      355.21704    -3     7    -7  -0.06670  -0.04133   0.00306  18.13810   0.05245  81.32898        1169.00        3307.22     1.33248     1.64225   171.57072     0.10755     0.00000  1013.03595  1013.03595
    23      364.74744      259.68430    -5     7    -7  -0.06129  -0.08282   0.00388  18.42402   0.04893  86.88874        6915.00       18081.21     1.26756     1.89298   179.48691     0.17840     0.00000   145.92291   145.92291
    29      784.08319       52.52021   -10     6    -8   0.00362  -0.09012   0.00274  21.07571   0.03835 100.15289        3834.00       10947.21     1.58239     1.67993    94.53082     0.21662     0.00000   823.11847   823.11847
    33      300.67770       92.97718    -6     8   -10  -0.08830   0.02757   0.00366  21.53326   0.03834  97.34195         610.00        2434.22     1.36405     1.79847    16.01220     0.11308     0.00000   971.97046   971.97046
    24      919.90900      273.24588    -9     5    -5   0.11712  -0.05977   0.00503  19.04853   0.04744  86.63331        9381.00       15383.21     1.20214     1.28869     0.84072     0.17313     0.00000   365.09305   365.09305
    26       27.56618      162.46001    -3     7    -9   0.29987   0.01750   0.01009  18.66351   0.04597  92.52815         789.00        2392.22     1.12258     1.75959   177.38358     0.09720     0.00000   301.03595   301.03595
    25      822.84119       31.37690    -9     5    -7   0.20618  -0.16035   0.00888  18.39812   0.04356 101.33144         845.00        3719.22     1.64911     1.87184    77.24308     0.13793     0.00000   784.07886   784.07886
    27      261.67957       78.66090    -5     7    -9  -0.09545  -0.05151   0.00398  18.84907   0.04354  98.10705        3333.00       10985.21     1.61972     1.87229    12.56713     0.18868     0.00000   920.13342   920.13342
    35      698.71716      226.32034    -9     7    -7   0.06085  -0.09427   0.00407  21.74919   0.04058  89.25131           0.00           0.00     0.00000     0.00000     0.00000     0.00000     0.00000     0.00000     0.00000
    28      454.66562       47.76670    -7     7    -9  -0.01446   0.00823   0.00065  19.88919   0.04053 100.54099        3932.00        9717.21     1.41816     1.65969   164.30972     0.17634     0.00000    27.91538    27.91538
    32      971.56281       85.56346   -11     5    -7  -0.35625  -0.32663   0.01594  21.19075   0.03885  97.70956        2751.00        5832.21     1.08290     1.54152   177.85854     0.14748     0.00000   454.95963   454.95963
latticeparameters=   0.54325   0.54482   0.54095  89.94821  90.19362  90.25914
dpsx, dpsy: 179.00000 168.38699
dd, xcent, ycent:      150.57201      540.60303      212.87601
pitch,yaw,roll:  -0.22645   0.61642   0.00000
dev1, dev2, pixdev:   0.01232   0.01198   0.25621
deviatoric strain in crystal reference u1 u2 u3 (*10^3)
   0.45240  -2.26899  -1.68330
  -2.26899   3.33372   0.44265
  -1.68330   0.44265  -3.77333
deviatoric strain in sample reference X Y Z (*10^3)
  -0.26630  -0.89303   0.46822
  -0.89303   4.59546   0.17056
   0.46822   0.17056  -4.31638
deviatoric principal strains (*10^3):   4.75512  -0.36420  -4.37814
deviatoric strain principal axes in sample reference:
  -0.17423   0.98466   0.00952
   0.97741   0.17175   0.12321
  -0.11968  -0.03077   0.99234
deviatoric stress in crystal reference u1 u2 u3 (MPa)
       46.82644     -360.81516     -267.67816
     -360.81516      339.85635       70.39066
     -267.67816       70.39066     -382.93048
deviatoric stress in sample reference X Y Z (MPa)
      -39.08991     -202.90532      -30.08450
     -202.90532      564.76233       21.00537
      -30.08450       21.00537     -521.92010
deviatoric principal stresses (MPa):      627.33344      -99.72345     -523.85767
deviatoric stress principal axes in sample reference:
       -0.29221        0.95602        0.02512
       -0.95457       -0.29317        0.05343
        0.05845       -0.00837        0.99826
total strain in sample reference X Y Z (*10^3)
   1.51185  -0.89303   0.46822
  -0.89303   6.37360   0.17056
   0.46822   0.17056  -2.53824
total principal strains (*10^3):   6.53326   1.41394  -2.59999
total strain principal axes in sample reference:
  -0.17423   0.98466   0.00952
   0.97741   0.17175   0.12321
  -0.11968  -0.03077   0.99234
total stress in crystal reference u1 u2 u3 (MPa)
      568.74652     -360.81516     -267.67816
     -360.81516      861.77643       70.39066
     -267.67816       70.39066      138.98962
total stress in sample reference X Y Z (MPa)
      482.83020     -202.90532      -30.08450
     -202.90532     1086.68237       21.00537
      -30.08450       21.00537        0.00000
total principal stresses (MPa):     1149.25342      422.19669       -1.93755
total stress principal axes in sample reference:
       -0.29221        0.95602        0.02512
       -0.95457       -0.29317        0.05343
        0.05845       -0.00837        0.99826
dilatational strain (*10^-3):        1.77814
hydrostatic stress (MPa):      523.17090
Von Mises stress (MPa):     1008.40033
equivalent strain (*10^-3):        5.28595
equivalent stress (MPa):     1008.40033
maximum resolved shear stress:       18.46124
coordinates of a, b, c in X, Y, Z
   0.44442  -0.20244   0.23853
   0.19251   0.50578   0.06495
  -0.24575   0.03228   0.48110
coordinates of a*, b*, c* in X, Y, Z
   1.50607  -0.67789   0.81480
   0.65612   1.70082   0.22102
  -0.83528   0.10648   1.64662
