\\vmware-host\Shared Folders\Desktop\SiHyperlaueFinal_shielded_results\results_00150.STR
Number of grains:       1
Grain no:       1   Grainlist file index:       1    Number of peaks:      32
no   x(exp)  y(exp)  h  k  l xdev  ydev  angdev  energy  dspace  twotheta  intens   integr  xwidth   ywidth  tilt  rfactor   pearson  xcentroid  ycentroid
     4      392.63995      872.03174    -2     4    -2  -0.29043  -0.12804   0.01697  12.44947   0.11104  53.29028       33907.00      123665.51     1.83757     1.88208     1.77823     0.22289     0.00000   546.38257   546.38257
     8      746.41266      951.28345    -3     3    -1  -0.39712   0.49363   0.02446  11.59405   0.12489  50.69804       17842.00       38418.50     1.08963     1.88181     0.00000     0.18830     0.00000   648.99982   648.99982
    13      991.69019      299.60291    -4     2    -2   0.15811  -0.11257   0.00689   8.25843   0.11084  85.26274       11498.00       19991.50     1.19040     1.44701     3.04932     0.17587     0.00000   258.92822   258.92822
     3      546.08948      225.17183    -3     3    -3   0.07945   0.16214   0.00648   8.45321   0.10445  89.19029       21789.00       35267.50     1.24691     1.28409     3.32690     0.19025     0.00000   992.03418   992.03418
     6     1026.49084      909.46112    -5     3    -1  -0.26624   0.25451   0.01338  14.49295   0.09196  55.43664       28163.00       76760.51     1.60419     1.98586   145.99495     0.23262     0.00000   925.35046   925.35046
     5      925.04297      682.99512    -6     4    -2   0.09074   0.01254   0.00421  16.08271   0.07267  64.06441       24483.00       63223.50     1.58888     1.92025   163.84459     0.21722     0.00000  1026.80249  1026.80249
     2      426.66534      666.11780    -3     5    -3   0.45136  -0.09729   0.02485  14.36138   0.08291  62.74955       18447.00       57567.50     1.64778     2.05681   178.91382     0.19621     0.00000   746.72137   746.72137
    12      648.66785      500.20438    -6     6    -4   0.18791   0.03610   0.00983  18.19226   0.05794  72.04474       28194.00       47261.50     1.20765     1.52153   179.18073     0.20929     0.00000   282.89453   282.89453
     7      668.66705      570.48541    -5     5    -3   0.13320  -0.02439   0.00711  15.64253   0.07079  68.09241       24968.00      128419.51     1.90916     2.98342   176.72726     0.30832     0.00000   426.91412   426.91412
    14      868.14661      257.26254    -5     3    -3   0.07191   0.18786   0.00646  10.82854   0.08280  87.48995       10555.00       26068.50     1.53693     1.72386    54.55622     0.21552     0.00000   859.20703   859.20703
     9      331.59857      270.37634    -4     6    -6  -0.48079  -0.01730   0.02172  15.68388   0.05784  86.20919       40302.00       61287.50     1.08523     1.56019   179.93065     0.18962     0.00000   669.01141   669.01141
    10      282.61838      288.48947    -3     5    -5  -0.40013  -0.01308   0.01774  12.97788   0.07064  85.09861       10663.00       33350.50     1.84050     1.87462    65.44709     0.20114     0.00000   868.34534   868.34534
    19      258.62576      619.59918    -3     7    -5  -0.01353  -0.34307   0.00904  19.09369   0.05963  65.97791       11653.00       23841.50     1.17363     1.73235   177.66524     0.21074     0.00000   439.07364   439.07364
    17      858.93420      567.48590    -7     5    -3   0.14567  -0.28175   0.01056  18.24933   0.05968  69.39405        7737.00       16232.50     1.25006     1.56052   177.31586     0.21247     0.00000   722.15863   722.15863
    30      475.07516      454.82144    -6     8    -6  -0.01004   0.09209   0.00283  21.97037   0.04659  74.55490         475.00        2144.50     1.32383     1.95268     8.26525     0.09562     0.00000   699.01105   699.01105
    20      463.67203      498.15088    -5     7    -5   0.38050  -0.09499   0.02011  19.31685   0.05461  71.98066        1013.00        2969.50     1.38656     1.74830   168.54637     0.09921     0.00000  1013.01276  1013.01276
    22      721.87091      228.62883    -8     6    -6   0.05883   0.00488   0.00263  18.98059   0.04655  89.11694        6496.00       16392.50     1.23404     1.88812   179.34367     0.16880     0.00000   145.93138   145.93138
    15      129.37045       39.63052    -3     5    -7  -0.18061   0.27057   0.01022  13.62134   0.05947  99.85410         811.00        2984.50     1.47622     1.83142   177.00024     0.10647     0.00000   475.05530   475.05530
    18      438.70090       20.97064    -6     6    -8   0.43146   0.30474   0.01971  17.14040   0.04649 102.16025       14595.00       28924.50     1.22064     1.70332     6.10877     0.21580     0.00000   129.73611   129.73611
    31     1012.72626      601.47388    -9     5    -3   0.05575  -0.11834   0.00394  21.60149   0.05069  68.96314        2525.00        5532.50     1.07961     1.48411     0.89481     0.15388     0.00000   454.99704   454.99704
    16      753.60217      232.68596    -7     5    -5  -0.30983   0.17136   0.01466  16.22818   0.05456  88.87706        7061.00       17314.50     1.09509     1.94345   179.93472     0.29948     0.00000   464.03561   464.03561
    21      145.61835      355.22696    -3     7    -7  -0.00751  -0.00562   0.00036  18.14003   0.05245  81.32610       19720.00       28332.50     1.15401     1.24938   178.08215     0.17813     0.00000   753.88818   753.88818
    23      364.76550      259.68701    -5     7    -7  -0.03345  -0.05700   0.00239  18.42551   0.04893  86.88692        8261.00       14121.50     1.20337     1.33423     0.77673     0.17384     0.00000   365.10886   365.10886
    29      784.20691       52.49646   -10     6    -8  -0.09174  -0.10253   0.00485  21.07611   0.03835 100.15503        4601.00        8045.50     1.11869     1.33214   176.75578     0.14376     0.00000   262.03043   262.03043
    32      300.68262       92.97469    -6     8   -10  -0.05694   0.06285   0.00303  21.53500   0.03834  97.34002         584.00        2440.50     1.32822     1.85341     9.38009     0.11261     0.00000   972.00000   972.00000
    24      919.98376      273.21857    -9     5    -5   0.09783  -0.06804   0.00443  19.04860   0.04744  86.63555         721.00        3498.50     1.58245     1.96157    86.31954     0.13472     0.00000   784.09894   784.09894
    26       27.58482      162.47462    -3     7    -9   0.35596   0.06201   0.01207  18.66548   0.04597  92.52496        2821.00        9998.50     1.76873     1.85961    89.26571     0.16955     0.00000   920.14496   920.14496
    25      822.89453       31.33011    -9     5    -7   0.18222  -0.15765   0.00809  18.39837   0.04356 101.33398         826.00        2650.50     1.14735     1.78969   175.36996     0.11049     0.00000   301.00119   301.00119
    27      261.67953       78.67131    -5     7    -9  -0.05724  -0.02466   0.00233  18.85066   0.04354  98.10491        3673.00        8739.50     1.37807     1.63354   167.28568     0.16501     0.00000    27.93616    27.93616
    34      698.73883      226.25520    -9     7    -7   0.07675  -0.04024   0.00368  21.74990   0.04057  89.25205         522.00        2764.24     1.23885     2.33164     5.66252     0.52932     0.00000   615.84363   615.84363
    28      454.66824       47.75744    -7     7    -9   0.00626   0.02955   0.00096  19.89040   0.04053 100.54028        3231.00        9915.50     1.49630     1.92566    51.46164     0.19839     0.00000   823.12842   823.12842
    33      971.56189       85.53312   -11     5    -7  -0.30671  -0.35808   0.01522  21.19070   0.03885  97.71298         592.00        2366.93     1.37676     1.83240    12.42509     0.10842     0.00000   971.97925   971.97925
latticeparameters=   0.54328   0.54480   0.54094  89.94878  90.19206  90.25918
dpsx, dpsy: 179.00000 168.38699
dd, xcent, ycent:      150.57201      540.60303      212.87601
pitch,yaw,roll:  -0.22645   0.61642   0.00000
dev1, dev2, pixdev:   0.01219   0.01202   0.24592
deviatoric strain in crystal reference u1 u2 u3 (*10^3)
   0.51564  -2.26922  -1.66970
  -2.26922   3.30386   0.43770
  -1.66970   0.43770  -3.80665
deviatoric strain in sample reference X Y Z (*10^3)
  -0.24299  -0.91720   0.50905
  -0.91720   4.57730   0.14672
   0.50905   0.14672  -4.32147
deviatoric principal strains (*10^3):   4.74623  -0.34179  -4.39160
deviatoric strain principal axes in sample reference:
  -0.18023   0.98361   0.00580
   0.97524   0.17792   0.13130
  -0.12812  -0.02932   0.99133
deviatoric stress in crystal reference u1 u2 u3 (MPa)
       53.26146     -360.85187     -265.51511
     -360.85187      336.82358       69.60258
     -265.51511       69.60258     -386.31552
deviatoric stress in sample reference X Y Z (MPa)
      -37.17046     -205.10677      -25.59304
     -205.10677      562.83472       18.08299
      -25.59304       18.08299     -521.89478
deviatoric principal stresses (MPa):      626.78418      -99.71941     -523.29523
deviatoric stress principal axes in sample reference:
       -0.29585        0.95499        0.02163
       -0.95395       -0.29655        0.04513
        0.04951       -0.00728        0.99875
total strain in sample reference X Y Z (*10^3)
   1.53506  -0.91720   0.50905
  -0.91720   6.35536   0.14672
   0.50905   0.14672  -2.54341
total principal strains (*10^3):   6.52429   1.43626  -2.61354
total strain principal axes in sample reference:
  -0.18023   0.98361   0.00580
   0.97524   0.17792   0.13130
  -0.12812  -0.02932   0.99133
total stress in crystal reference u1 u2 u3 (MPa)
      575.15625     -360.85187     -265.51511
     -360.85187      858.71832       69.60258
     -265.51511       69.60258      135.57924
total stress in sample reference X Y Z (MPa)
      484.72430     -205.10677      -25.59304
     -205.10677     1084.72949       18.08299
      -25.59304       18.08299        0.00000
total principal stresses (MPa):     1148.67908      422.17532       -1.40048
total stress principal axes in sample reference:
       -0.29585        0.95499        0.02163
       -0.95395       -0.29655        0.04513
        0.04951       -0.00728        0.99875
dilatational strain (*10^-3):        1.77806
hydrostatic stress (MPa):      523.15125
Von Mises stress (MPa):     1007.44891
equivalent strain (*10^-3):        5.28707
equivalent stress (MPa):     1007.44891
maximum resolved shear stress:       21.12126
coordinates of a, b, c in X, Y, Z
   0.44449  -0.20240   0.23858
   0.19245   0.50582   0.06496
  -0.24577   0.03225   0.48111
coordinates of a*, b*, c* in X, Y, Z
   1.50615  -0.67768   0.81483
   0.65593   1.70107   0.22106
  -0.83545   0.10639   1.64674
