\\vmware-host\Shared Folders\Desktop\SiHyperlaueFinal_shielded_results\results_00101.STR
Number of grains:       1
Grain no:       1   Grainlist file index:       1    Number of peaks:      32
no   x(exp)  y(exp)  h  k  l xdev  ydev  angdev  energy  dspace  twotheta  intens   integr  xwidth   ywidth  tilt  rfactor   pearson  xcentroid  ycentroid
     2      392.63782      871.97974    -2     4    -2  -0.29880  -0.11151   0.01737  12.44962   0.11103  53.29181       30501.00       98954.45     1.70986     2.04086   178.57298     0.20931     0.00000   746.67657   746.67657
     5      746.37323      951.26880    -3     3    -1  -0.38366   0.50365   0.02385  11.59450   0.12489  50.69801       33981.00       85209.45     1.66915     1.80467   146.12520     0.20826     0.00000  1026.77661  1026.77661
    14      991.68536      299.61880    -4     2    -2   0.13166  -0.09570   0.00576   8.25873   0.11083  85.26077       12150.00       28064.45     1.50757     1.64869   107.84926     0.21945     0.00000   859.19391   859.19391
     4      546.06873      225.15103    -3     3    -3   0.09119   0.19245   0.00761   8.45347   0.10445  89.18966       40611.00      142113.45     1.82508     1.87603    21.86899     0.22611     0.00000   546.38177   546.38177
     7     1026.46143      909.49487    -5     3    -1  -0.27980   0.23868   0.01380  14.49367   0.09196  55.43537       31177.00      150910.45     1.90500     2.89052   175.52785     0.30892     0.00000   426.87616   426.87616
     6      924.97693      682.97595    -6     4    -2   0.12304   0.05102   0.00576  16.08345   0.07267  64.06314       35091.00       91954.45     1.72567     1.74587    71.45317     0.26137     0.00000   925.35236   925.35236
     3      426.64227      666.11560    -3     5    -3   0.46417  -0.11160   0.02557  14.36172   0.08291  62.75043       24766.00       38672.45     1.24193     1.24531   167.23994     0.18382     0.00000   992.02533   992.02533
    12      648.66742      500.20993    -6     6    -4   0.17141   0.03893   0.00899  18.19295   0.05794  72.04419       30992.00       52616.45     1.21597     1.54246   179.44070     0.21277     0.00000   282.89337   282.89337
     8      668.66718      570.49670    -5     5    -3   0.11441  -0.02844   0.00613  15.64314   0.07078  68.09193       19489.00       41453.45     1.08879     1.87835     0.00000     0.19032     0.00000   649.00256   649.00256
    13      868.12311      257.28436    -5     3    -3   0.07190   0.19349   0.00661  10.82893   0.08279  87.48823       12219.00       21217.45     1.19885     1.44099     3.51703     0.17959     0.00000   258.93326   258.93326
     9      331.59186      270.35919    -4     6    -6  -0.47801  -0.00639   0.02158  15.68423   0.05784  86.20958       46281.00       69407.45     1.08391     1.53798     0.03461     0.19245     0.00000   669.00146   669.00146
    10      282.61511      288.47760    -3     5    -5  -0.40015  -0.01152   0.01774  12.97814   0.07064  85.09926       13487.00       39464.45     1.78192     1.88603   165.69589     0.20591     0.00000   868.35095   868.35095
    19      258.62186      619.59534    -3     7    -5  -0.01546  -0.36730   0.00968  19.09393   0.05963  65.97941       12129.00       24599.45     1.17634     1.71781   177.65723     0.21528     0.00000   439.06238   439.06238
    17      858.88800      567.50037    -7     5    -3   0.16355  -0.27711   0.01108  18.25014   0.05967  69.39281        8276.00       16905.45     1.23696     1.55242   177.84361     0.20877     0.00000   722.15210   722.15210
    31      475.06201      454.80960    -6     8    -6  -0.00670   0.10173   0.00310  21.97104   0.04659  74.55504        2443.00        5478.45     1.08916     1.51776   177.93900     0.15074     0.00000   455.00455   455.00455
    20      463.67044      498.15399    -5     7    -5   0.37217  -0.10289   0.01970  19.31742   0.05461  71.98095        1160.00        3233.45     1.34754     1.61976   173.24162     0.10160     0.00000  1013.00049  1013.00049
    22      721.86237      228.63484    -8     6    -6   0.05147   0.01894   0.00238  18.98123   0.04655  89.11564        6595.00       17043.45     1.24809     1.89724   179.31204     0.17191     0.00000   145.93520   145.93520
    15      129.38248       39.62320    -3     5    -7  -0.19189   0.26277   0.01031  13.62149   0.05947  99.85497         860.00        3139.45     1.46342     1.84024   178.18042     0.10734     0.00000   475.04999   475.04999
    18      438.70209       20.96009    -6     6    -8   0.42779   0.32177   0.01983  17.14076   0.04649 102.15985       15761.00       30917.45     1.23441     1.68635     6.91925     0.22061     0.00000   129.73888   129.73888
    30     1012.70337      601.55127    -9     5    -3   0.04053  -0.16963   0.00472  21.60247   0.05069  68.96146         455.00        1864.45     1.27917     1.93209     2.07179     0.08435     0.00000   699.02570   699.02570
    16      753.59686      232.69124    -7     5    -5  -0.32190   0.18783   0.01535  16.22874   0.05456  88.87566        7488.00       18430.45     1.08955     1.94847   179.99780     0.30036     0.00000   464.01782   464.01782
    21      145.61136      355.21338    -3     7    -7  -0.00301  -0.01479   0.00045  18.14024   0.05245  81.32743       20136.00       29496.45     1.15849     1.26281   179.10571     0.18736     0.00000   753.87872   753.87872
    23      364.76337      259.68561    -5     7    -7  -0.03581  -0.05915   0.00252  18.42594   0.04893  86.88715        8828.00       15044.45     1.20397     1.32748     1.08878     0.17889     0.00000   365.10529   365.10529
    29      784.16034       52.55317   -10     6    -8  -0.06007  -0.13212   0.00475  21.07668   0.03835 100.15341        4805.00        8522.45     1.11952     1.36249   177.08339     0.14779     0.00000   262.01303   262.01303
    32      300.68002       92.99470    -6     8   -10  -0.05541   0.03876   0.00255  21.53539   0.03834  97.34027         565.00        2312.45     1.39158     1.82491    13.54683     0.10706     0.00000   971.97498   971.97498
    24      919.93976      273.26968    -9     5    -5   0.11521  -0.08938   0.00535  19.04929   0.04744  86.63372         787.00        3507.45     1.54246     1.81726   168.71527     0.13081     0.00000   784.06183   784.06183
    26       27.57664      162.43651    -3     7    -9   0.36319   0.07531   0.01236  18.66562   0.04597  92.52635        3169.00       10456.45     1.67179     1.86574    17.46418     0.17957     0.00000   920.15588   920.15588
    25      822.87909       31.36183    -9     5    -7   0.18151  -0.15963   0.00810  18.39885   0.04356 101.33225         774.00        2394.45     1.13586     1.77821   178.58635     0.09796     0.00000   301.00107   301.00107
    27      261.68121       78.65796    -5     7    -9  -0.05931  -0.01782   0.00235  18.85097   0.04354  98.10530        3641.00        9191.45     1.39090     1.72635   170.82567     0.16566     0.00000    27.92542    27.92542
    35      698.73297      226.31596    -9     7    -7   0.06777  -0.08222   0.00402  21.75063   0.04057  89.25083           0.00           0.00     0.00000     0.00000     0.00000     0.00000     0.00000     0.00000     0.00000
    28      454.66498       47.75654    -7     7    -9   0.00620   0.03754   0.00120  19.89084   0.04053 100.53983        3482.00       10337.45     1.55542     1.82183    79.70609     0.20088     0.00000   823.13354   823.13354
    33      971.53448       85.53985   -11     5    -7  -0.30432  -0.32805   0.01455  21.19129   0.03885  97.71094         610.00        2434.22     1.36405     1.79847    16.01220     0.11308     0.00000   971.97046   971.97046
latticeparameters=   0.54328   0.54479   0.54094  89.94772  90.19094  90.25615
dpsx, dpsy: 179.00000 168.38699
dd, xcent, ycent:      150.57201      540.60303      212.87601
pitch,yaw,roll:  -0.22645   0.61642   0.00000
dev1, dev2, pixdev:   0.01228   0.01209   0.25107
deviatoric strain in crystal reference u1 u2 u3 (*10^3)
   0.52325  -2.24271  -1.65991
  -2.24271   3.28219   0.44705
  -1.65991   0.44705  -3.79272
deviatoric strain in sample reference X Y Z (*10^3)
  -0.23258  -0.91205   0.51963
  -0.91205   4.54212   0.15785
   0.51963   0.15785  -4.29682
deviatoric principal strains (*10^3):   4.71082  -0.32751  -4.37058
deviatoric strain principal axes in sample reference:
  -0.18074   0.98351   0.00681
   0.97473   0.17820   0.13469
  -0.13126  -0.03098   0.99086
deviatoric stress in crystal reference u1 u2 u3 (MPa)
       54.02825     -356.63535     -263.95905
     -356.63535      334.61221       71.08957
     -263.95905       71.08957     -384.90628
deviatoric stress in sample reference X Y Z (MPa)
      -35.82277     -203.72835      -23.68778
     -203.72835      558.23456       20.03452
      -23.68778       20.03452     -518.67755
deviatoric principal stresses (MPa):      621.98785      -98.31493     -519.93872
deviatoric stress principal axes in sample reference:
       -0.29652        0.95475        0.02293
       -0.95398       -0.29723        0.03959
        0.04461       -0.01013        0.99895
total strain in sample reference X Y Z (*10^3)
   1.53452  -0.91205   0.51963
  -0.91205   6.30921   0.15785
   0.51963   0.15785  -2.52972
total principal strains (*10^3):   6.47791   1.43958  -2.60349
total strain principal axes in sample reference:
  -0.18074   0.98351   0.00681
   0.97473   0.17820   0.13469
  -0.13126  -0.03098   0.99086
total stress in crystal reference u1 u2 u3 (MPa)
      572.70581     -356.63535     -263.95905
     -356.63535      853.28979       71.08957
     -263.95905       71.08957      133.77130
total stress in sample reference X Y Z (MPa)
      482.85480     -203.72835      -23.68778
     -203.72835     1076.91211       20.03452
      -23.68778       20.03452        0.00000
total principal stresses (MPa):     1140.66553      420.36261       -1.26114
total stress principal axes in sample reference:
       -0.29652        0.95475        0.02293
       -0.95398       -0.29723        0.03959
        0.04461       -0.01013        0.99895
dilatational strain (*10^-3):        1.76709
hydrostatic stress (MPa):      519.92230
Von Mises stress (MPa):     1000.14972
equivalent strain (*10^-3):        5.25364
equivalent stress (MPa):     1000.14972
maximum resolved shear stress:       22.31283
coordinates of a, b, c in X, Y, Z
   0.44450  -0.20240   0.23858
   0.19247   0.50581   0.06495
  -0.24576   0.03227   0.48113
coordinates of a*, b*, c* in X, Y, Z
   1.50614  -0.67775   0.81479
   0.65598   1.70112   0.22097
  -0.83542   0.10645   1.64674
