\\vmware-host\Shared Folders\Desktop\SiHyperlaueFinal_shielded_results\results_00075.STR
Number of grains:       1
Grain no:       1   Grainlist file index:       1    Number of peaks:      33
no   x(exp)  y(exp)  h  k  l xdev  ydev  angdev  energy  dspace  twotheta  intens   integr  xwidth   ywidth  tilt  rfactor   pearson  xcentroid  ycentroid
     2      392.63147      871.96844    -2     4    -2  -0.32512  -0.10943   0.01886  12.44771   0.11105  53.29234       43275.00      149169.94     1.76240     2.06277   178.68320     0.20508     0.00000   746.64880   746.64880
     5      746.33441      951.24622    -3     3    -1  -0.35029   0.53820   0.02247  11.59338   0.12490  50.69751       42327.00      108539.94     1.59681     1.92284   100.45487     0.18528     0.00000  1026.77063  1026.77063
    13      991.67841      299.62094    -4     2    -2   0.12260  -0.06938   0.00511   8.25856   0.11084  85.25908       39299.00       68494.94     1.22619     1.57608   179.20634     0.22306     0.00000   282.87677   282.87677
     3      546.04773      225.14412    -3     3    -3   0.10838   0.18576   0.00792   8.45275   0.10446  89.19055       30977.00       47585.94     1.23717     1.24206   143.97533     0.18297     0.00000   992.02100   992.02100
     7     1026.44641      909.49762    -5     3    -1  -0.27628   0.26019   0.01385  14.49304   0.09197  55.43428         446.00        1458.94     1.16714     1.52634   176.50423     0.07140     0.00000    62.01226    62.01226
     6      925.00018      683.02179    -6     4    -2   0.09275   0.02014   0.00431  16.08258   0.07268  64.06235       41558.00      109524.94     1.59943     1.96335    68.76139     0.25658     0.00000   925.35400   925.35400
    36       61.83184      407.69183    -1     3    -3   0.22521   0.29479   0.01242   7.85985   0.12446  78.64915           0.00           0.00     0.00000     0.00000     0.00000     0.00000     0.00000     0.00000     0.00000
     4      426.63263      666.11151    -3     5    -3   0.44936  -0.12837   0.02480  14.35965   0.08292  62.75157       58183.00      196021.94     1.80918     1.87508    11.38551     0.22843     0.00000   546.37909   546.37909
    14      648.66705      500.22293    -6     6    -4   0.16631   0.01660   0.00867  18.19117   0.05795  72.04472       13722.00       24308.94     1.21688     1.47245     4.27796     0.18676     0.00000   258.92532   258.92532
     8      668.66718      570.49933    -5     5    -3   0.10884  -0.03842   0.00589  15.64159   0.07079  68.09232       39275.00      187462.94     1.90382     2.83609   175.15752     0.30777     0.00000   426.84964   426.84964
    11      868.10938      257.28699    -5     3    -3   0.07926   0.20926   0.00718  10.82854   0.08280  87.48710       21044.00       60153.94     1.73844     1.92551    24.09387     0.21358     0.00000   868.38293   868.38293
    10      331.59027      270.35312    -4     6    -6  -0.49663  -0.03148   0.02245  15.68241   0.05785  86.21156       54484.00       81305.94     1.08454     1.53476     0.06434     0.19331     0.00000   668.99957   668.99957
     9      282.61096      288.46008    -3     5    -5  -0.42195  -0.02781   0.01874  12.97656   0.07064  85.10139       22488.00       46862.94     1.08897     1.86844     0.03511     0.19213     0.00000   649.01282   649.01282
    19      258.61594      619.58710    -3     7    -5  -0.05306  -0.38479   0.01060  19.09099   0.05964  65.98104       19662.00       38705.94     1.23660     1.69102     6.85627     0.23173     0.00000   129.71472   129.71472
    17      858.88214      567.50269    -7     5    -3   0.16445  -0.26997   0.01097  18.24903   0.05968  69.39226        8368.00       20439.94     1.08776     1.94386     0.09215     0.30104     0.00000   464.02206   464.02206
    31      474.99088      454.84338    -6     8    -6   0.04973   0.04500   0.00294  21.96836   0.04659  74.55644         489.00        2061.94     1.26987     2.09425     5.95420     0.09254     0.00000   699.00909   699.00909
    20      463.66998      498.14825    -5     7    -5   0.35586  -0.12047   0.01893  19.31496   0.05462  71.98234       13893.00       27835.94     1.17058     1.72362   177.64375     0.21508     0.00000   439.08701   439.08701
    22      721.85828      228.63416    -8     6    -6   0.05439   0.02379   0.00255  18.98013   0.04655  89.11538       23635.00       34859.94     1.16002     1.27891   179.12885     0.19452     0.00000   753.87933   753.87933
    15      129.37984       39.62062    -3     5    -7  -0.21325   0.22593   0.01008  13.62017   0.05948  99.85711       14159.00       32207.94     1.51237     1.62402    80.93583     0.22886     0.00000   859.20380   859.20380
    18      438.70001       20.96447    -6     6    -8   0.42972   0.30338   0.01963  17.13952   0.04649 102.16071        9156.00       18376.94     1.23983     1.54385   178.10408     0.20896     0.00000   722.16302   722.16302
    30     1012.69781      601.56824    -9     5    -3   0.03243  -0.16584   0.00449  21.60173   0.05069  68.96029        5234.00        9224.94     1.12129     1.37882   176.80492     0.14947     0.00000   262.00732   262.00732
    16      753.59064      232.69189    -7     5    -5  -0.31739   0.19453   0.01525  16.22788   0.05456  88.87519         956.00        3224.94     1.53818     1.74404   178.70058     0.10897     0.00000   475.04285   475.04285
    21      145.61336      355.20261    -3     7    -7  -0.05097  -0.04129   0.00248  18.13781   0.05245  81.32975        1302.00        3498.94     1.30328     1.58208   173.66399     0.10961     0.00000  1013.00848  1013.00848
    23      364.75516      259.68546    -5     7    -7  -0.04430  -0.08798   0.00348  18.42389   0.04893  86.88900        7353.00       19058.94     1.24227     1.89342   179.08295     0.18036     0.00000   145.92848   145.92848
    29      784.14862       52.51130   -10     6    -8  -0.04999  -0.06764   0.00290  21.07603   0.03835 100.15203        3969.00       11702.94     1.49611     1.88825    82.16636     0.20854     0.00000   823.14722   823.14722
    32      300.68329       93.03074    -6     8   -10  -0.07141  -0.02674   0.00296  21.53336   0.03834  97.34206        2838.00        6090.94     1.08018     1.51829   179.54311     0.15866     0.00000   455.02679   455.02679
    25      919.93542      273.27744    -9     5    -5   0.10973  -0.07422   0.00494  19.04874   0.04744  86.63233         861.00        3836.94     1.62279     1.96142    56.10543     0.13403     0.00000   784.07935   784.07935
    26       27.57147      162.42757    -3     7    -9   0.32187   0.03965   0.01087  18.66350   0.04597  92.52878         802.00        2643.94     1.12733     1.85356   176.82745     0.10774     0.00000   301.01636   301.01636
    24      822.88611       31.35630    -9     5    -7   0.17055  -0.12488   0.00723  18.39842   0.04356 101.33052       10083.00       16857.94     1.20125     1.30993     1.26730     0.18281     0.00000   365.10938   365.10938
    27      261.68109       78.66234    -5     7    -9  -0.07412  -0.05401   0.00327  18.84917   0.04354  98.10719        3619.00       11698.94     1.66509     1.86296    20.02483     0.18829     0.00000   920.14557   920.14557
    35      698.73407      226.31804    -9     7    -7   0.06570  -0.08249   0.00396  21.74930   0.04058  89.25072           0.00           0.00     0.00000     0.00000     0.00000     0.00000     0.00000     0.00000     0.00000
    28      454.66367       47.76121    -7     7    -9   0.00671   0.01879   0.00065  19.88937   0.04053 100.54071        4014.00       10018.94     1.39264     1.72736   169.82442     0.17264     0.00000    27.92435    27.92435
    33      971.51752       85.60065   -11     5    -7  -0.30470  -0.34690   0.01494  21.19110   0.03885  97.70857         639.00        2576.94     1.46172     1.59809    28.88722     0.11867     0.00000   971.99469   971.99469
latticeparameters=   0.54324   0.54485   0.54092  89.94847  90.19415  90.25857
dpsx, dpsy: 179.00000 168.38699
dd, xcent, ycent:      150.57201      540.60303      212.87601
pitch,yaw,roll:  -0.22645   0.61642   0.00000
dev1, dev2, pixdev:   0.01218   0.01202   0.25263
deviatoric strain in crystal reference u1 u2 u3 (*10^3)
   0.44488  -2.26410  -1.68782
  -2.26410   3.39716   0.44031
  -1.68782   0.44031  -3.82884
deviatoric strain in sample reference X Y Z (*10^3)
  -0.26756  -0.86549   0.48879
  -0.86549   4.64516   0.17772
   0.48879   0.17772  -4.36439
deviatoric principal strains (*10^3):   4.79412  -0.35036  -4.43055
deviatoric strain principal axes in sample reference:
  -0.16758   0.98581   0.01019
   0.97816   0.16497   0.12641
  -0.12294  -0.03115   0.99193
deviatoric stress in crystal reference u1 u2 u3 (MPa)
       46.08841     -360.03656     -268.39706
     -360.03656      346.33591       70.01833
     -268.39706       70.01833     -388.54837
deviatoric stress in sample reference X Y Z (MPa)
      -38.78565     -199.93088      -28.09867
     -199.93088      569.63953       21.80856
      -28.09867       21.80856     -526.97797
deviatoric principal stresses (MPa):      630.18121      -97.61054     -528.69476
deviatoric stress principal axes in sample reference:
       -0.28723        0.95754        0.02502
       -0.95639       -0.28813        0.04795
        0.05313       -0.01016        0.99854
total strain in sample reference X Y Z (*10^3)
   1.52781  -0.86549   0.48879
  -0.86549   6.44053   0.17772
   0.48879   0.17772  -2.56902
total principal strains (*10^3):   6.58949   1.44501  -2.63518
total strain principal axes in sample reference:
  -0.16758   0.98581   0.01019
   0.97816   0.16497   0.12641
  -0.12294  -0.03115   0.99193
total stress in crystal reference u1 u2 u3 (MPa)
      573.06635     -360.03656     -268.39706
     -360.03656      873.31384       70.01833
     -268.39706       70.01833      138.42957
total stress in sample reference X Y Z (MPa)
      488.19229     -199.93088      -28.09867
     -199.93088     1096.61755       21.80856
      -28.09867       21.80856        0.00000
total principal stresses (MPa):     1157.15918      429.36740       -1.71678
total stress principal axes in sample reference:
       -0.28723        0.95754        0.02502
       -0.95639       -0.28813        0.04795
        0.05313       -0.01016        0.99854
dilatational strain (*10^-3):        1.79537
hydrostatic stress (MPa):      528.26996
Von Mises stress (MPa):     1014.52155
equivalent strain (*10^-3):        5.33767
equivalent stress (MPa):     1014.52155
maximum resolved shear stress:       15.68392
coordinates of a, b, c in X, Y, Z
   0.44442  -0.20243   0.23852
   0.19251   0.50581   0.06498
  -0.24574   0.03225   0.48107
coordinates of a*, b*, c* in X, Y, Z
   1.50607  -0.67790   0.81478
   0.65602   1.70071   0.22109
  -0.83533   0.10638   1.64671
