\\vmware-host\Shared Folders\Desktop\SiHyperlaueFinal_shielded_results\results_00043.STR
Number of grains:       1
Grain no:       1   Grainlist file index:       1    Number of peaks:      33
no   x(exp)  y(exp)  h  k  l xdev  ydev  angdev  energy  dspace  twotheta  intens   integr  xwidth   ywidth  tilt  rfactor   pearson  xcentroid  ycentroid
     2      392.62363      871.98663    -2     4    -2  -0.32805  -0.11175   0.01903  12.44789   0.11105  53.29172       59290.00      203533.89     1.79276     2.06255   178.06268     0.21525     0.00000   746.61865   746.61865
     5      746.30603      951.29694    -3     3    -1  -0.33543   0.52952   0.02165  11.59375   0.12490  50.69580       49035.00      127092.89     1.66838     1.86801   102.22777     0.19674     0.00000  1026.74390  1026.74390
    13      991.66791      299.62091    -4     2    -2   0.11317  -0.04223   0.00449   8.25875   0.11084  85.25746       49351.00       85428.89     1.23326     1.55571   179.05904     0.22904     0.00000   282.87228   282.87228
     3      546.02783      225.15190    -3     3    -3   0.12038   0.19083   0.00841   8.45291   0.10446  89.18970       38820.00       58567.89     1.23340     1.23500   127.81328     0.18297     0.00000   992.00256   992.00256
     6     1026.42749      909.53156    -5     3    -1  -0.27705   0.27405   0.01401  14.49356   0.09197  55.43216       45747.00      122092.89     1.59785     1.98285   128.06889     0.23562     0.00000   925.33893   925.33893
     7      924.99249      683.06738    -6     4    -2   0.08345   0.00846   0.00388  16.08303   0.07268  64.06053        1019.00        2325.89     1.14789     1.48184     0.27391     0.08211     0.00000    62.02484    62.02484
    34       61.82760      407.68829    -1     3    -3   0.22396   0.29018   0.01230   7.85992   0.12446  78.64963         522.00        2764.24     1.23885     2.33164     5.66252     0.52932     0.00000   615.84363   615.84363
     4      426.61475      666.12958    -3     5    -3   0.45750  -0.13399   0.02525  14.35985   0.08292  62.75096       79686.00      262556.91     1.79007     1.87391     2.07188     0.23101     0.00000   546.37109   546.37109
    14      648.66742      500.25018    -6     6    -4   0.15490   0.00844   0.00807  18.19154   0.05795  72.04357       14490.00       25647.89     1.22284     1.46192     4.59935     0.18977     0.00000   258.92242   258.92242
     8      668.66687      570.51166    -5     5    -3   0.09756  -0.02925   0.00525  15.64192   0.07079  68.09108       48388.00      220034.89     1.89997     2.75059   175.34528     0.30502     0.00000   426.82086   426.82086
     9      868.07483      257.32516    -5     3    -3   0.09817   0.19462   0.00719  10.82877   0.08280  87.48564       25028.00       50609.89     1.08915     1.85243   179.98232     0.19711     0.00000   649.00482   649.00482
    11      331.58630      270.36130    -4     6    -6  -0.49813  -0.03525   0.02253  15.68266   0.05785  86.21128       32167.00       87039.89     1.66420     1.93572   156.00117     0.22869     0.00000   868.38763   868.38763
    10      282.60812      288.47128    -3     5    -5  -0.42433  -0.03670   0.01886  12.97675   0.07064  85.10125       62505.00       92452.89     1.08416     1.51524     0.04786     0.19434     0.00000   669.00427   669.00427
    19      258.61340      619.59045    -3     7    -5  -0.05934  -0.38575   0.01073  19.09116   0.05964  65.98097       23892.00       46695.89     1.24197     1.68311     7.17646     0.23879     0.00000   129.70277   129.70277
    17      858.85876      567.52319    -7     5    -3   0.17251  -0.26245   0.01113  18.24948   0.05968  69.39064        8675.00       21989.89     1.08807     1.94940   179.91650     0.30180     0.00000   464.00620   464.00620
    31      474.97226      454.84821    -6     8    -6   0.05966   0.05138   0.00349  21.96871   0.04659  74.55576         563.00        2196.89     1.24929     1.90545     6.44040     0.10439     0.00000   699.00739   699.00739
    20      463.66937      498.17715    -5     7    -5   0.34757  -0.13811   0.01860  19.31526   0.05462  71.98169       15259.00       30554.89     1.17176     1.72679   177.61745     0.21914     0.00000   439.07935   439.07935
    22      721.83783      228.64377    -8     6    -6   0.06333   0.03312   0.00302  18.98053   0.04655  89.11415       26283.00       39098.89     1.16963     1.28555   178.99150     0.20071     0.00000   753.86938   753.86938
    15      129.38470       39.61948    -3     5    -7  -0.21709   0.22551   0.01017  13.62041   0.05948  99.85720       15928.00       34351.89     1.53304     1.54883   107.38263     0.23032     0.00000   859.19177   859.19177
    18      438.70032       20.96676    -6     6    -8   0.42554   0.31189   0.01961  17.13987   0.04649 102.16004       10251.00       20091.89     1.22484     1.49841   177.84406     0.21819     0.00000   722.13971   722.13971
    30     1012.69794      601.57745    -9     5    -3   0.01249  -0.14206   0.00364  21.60231   0.05069  68.95845        5713.00        9991.89     1.11762     1.36111   178.86476     0.15390     0.00000   262.02594   262.02594
    16      753.58752      232.69580    -7     5    -5  -0.32659   0.21057   0.01583  16.22822   0.05456  88.87391        1049.00        3235.89     1.56753     1.72796   170.34360     0.10115     0.00000   475.06268   475.06268
    21      145.60764      355.19418    -3     7    -7  -0.05036  -0.03683   0.00239  18.13801   0.05245  81.32999        1331.00        3456.89     1.30925     1.58215   173.89655     0.10300     0.00000  1013.01013  1013.01013
    23      364.74872      259.68762    -5     7    -7  -0.04356  -0.08433   0.00337  18.42419   0.04893  86.88863        7850.00       20670.89     1.25729     1.89928   179.13094     0.18318     0.00000   145.91364   145.91364
    29      784.10101       52.58312   -10     6    -8  -0.01522  -0.11721   0.00365  21.07649   0.03835 100.15071        4418.00       12247.89     1.44675     1.78921    88.59917     0.21849     0.00000   823.12164   823.12164
    32      300.68234       92.98208    -6     8   -10  -0.07299   0.02646   0.00306  21.53375   0.03834  97.34177        2984.00        6591.89     1.08244     1.51455   179.15527     0.16912     0.00000   454.97910   454.97910
    24      919.90552      273.31894    -9     5    -5   0.12227  -0.09065   0.00561  19.04916   0.04744  86.63080       10717.00       17812.89     1.20713     1.29412     2.35898     0.18542     0.00000   365.10599   365.10599
    26       27.56515      162.42685    -3     7    -9   0.32778   0.03270   0.01105  18.66375   0.04597  92.52921         909.00        2576.89     1.12025     1.79083   177.18025     0.10006     0.00000   300.96359   300.96359
    25      822.85730       31.41531    -9     5    -7   0.18521  -0.16004   0.00822  18.39882   0.04356 101.32914         958.00        4116.89     1.53628     1.83489   159.86929     0.14988     0.00000   784.09595   784.09595
    27      261.67828       78.66171    -5     7    -9  -0.07302  -0.05018   0.00318  18.84951   0.04354  98.10699        4053.00       12322.89     1.61596     1.82167    19.26498     0.19838     0.00000   920.14716   920.14716
    36      698.72247      226.35262    -9     7    -7   0.06635  -0.09889   0.00435  21.74974   0.04058  89.24954           0.00           0.00     0.00000     0.00000     0.00000     0.00000     0.00000     0.00000     0.00000
    28      454.66608       47.76868    -7     7    -9  -0.00020   0.02229   0.00070  19.88978   0.04053 100.54002        4332.00       10995.89     1.41029     1.73202   168.31140     0.18070     0.00000    27.90978    27.90978
    33      971.53986       85.61101   -11     5    -7  -0.34692  -0.32963   0.01574  21.19157   0.03885  97.70703         679.00        2529.89     1.40241     1.57559    15.74203     0.11335     0.00000   971.98602   971.98602
latticeparameters=   0.54325   0.54486   0.54091  89.94833  90.19465  90.25857
dpsx, dpsy: 179.00000 168.38699
dd, xcent, ycent:      150.57201      540.60303      212.87601
pitch,yaw,roll:  -0.22645   0.61642   0.00000
dev1, dev2, pixdev:   0.01230   0.01209   0.25531
deviatoric strain in crystal reference u1 u2 u3 (*10^3)
   0.45248  -2.26412  -1.69215
  -2.26412   3.40983   0.44152
  -1.69215   0.44152  -3.84898
deviatoric strain in sample reference X Y Z (*10^3)
  -0.26219  -0.86445   0.49808
  -0.86445   4.65736   0.17942
   0.49808   0.17942  -4.38185
deviatoric principal strains (*10^3):   4.80579  -0.34245  -4.45001
deviatoric strain principal axes in sample reference:
  -0.16716   0.98588   0.01019
   0.97805   0.16451   0.12791
  -0.12442  -0.03135   0.99173
deviatoric stress in crystal reference u1 u2 u3 (MPa)
       46.86991     -360.04071     -269.08521
     -360.04071      347.63181       70.21114
     -269.08521       70.21114     -390.58936
deviatoric stress in sample reference X Y Z (MPa)
      -38.07835     -199.90382      -27.27121
     -199.90382      570.91138       22.12319
      -27.27121       22.12319     -528.92072
deviatoric principal stresses (MPa):      631.39282      -96.92987     -530.55060
deviatoric stress principal axes in sample reference:
       -0.28696        0.95762        0.02500
       -0.95659       -0.28785        0.04565
        0.05091       -0.01082        0.99864
total strain in sample reference X Y Z (*10^3)
   1.53980  -0.86445   0.49808
  -0.86445   6.45936   0.17942
   0.49808   0.17942  -2.57985
total principal strains (*10^3):   6.60778   1.45954  -2.64801
total strain principal axes in sample reference:
  -0.16716   0.98588   0.01019
   0.97805   0.16451   0.12791
  -0.12442  -0.03135   0.99173
total stress in crystal reference u1 u2 u3 (MPa)
      575.79059     -360.04071     -269.08521
     -360.04071      876.55249       70.21114
     -269.08521       70.21114      138.33133
total stress in sample reference X Y Z (MPa)
      490.84235     -199.90382      -27.27121
     -199.90382     1099.83203       22.12319
      -27.27121       22.12319        0.00000
total principal stresses (MPa):     1160.31360      431.99081       -1.62991
total stress principal axes in sample reference:
       -0.28696        0.95762        0.02500
       -0.95659       -0.28785        0.04565
        0.05091       -0.01082        0.99864
dilatational strain (*10^-3):        1.80199
hydrostatic stress (MPa):      530.22479
Von Mises stress (MPa):     1017.00378
equivalent strain (*10^-3):        5.35508
equivalent stress (MPa):     1017.00378
maximum resolved shear stress:       15.83917
coordinates of a, b, c in X, Y, Z
   0.44442  -0.20245   0.23851
   0.19253   0.50581   0.06499
  -0.24573   0.03225   0.48107
coordinates of a*, b*, c* in X, Y, Z
   1.50607  -0.67794   0.81475
   0.65605   1.70068   0.22111
  -0.83532   0.10635   1.64677
