\\vmware-host\Shared Folders\Desktop\SiHyperlaueFinal_shielded_results\results_00099.STR
Number of grains:       1
Grain no:       1   Grainlist file index:       1    Number of peaks:      32
no   x(exp)  y(exp)  h  k  l xdev  ydev  angdev  energy  dspace  twotheta  intens   integr  xwidth   ywidth  tilt  rfactor   pearson  xcentroid  ycentroid
     2      392.63773      871.97583    -2     4    -2  -0.29962  -0.10875   0.01741  12.44961   0.11103  53.29186       30518.00      100508.36     1.71520     2.04930   178.60419     0.20865     0.00000   746.67230   746.67230
     5      746.36957      951.25909    -3     3    -1  -0.37254   0.53597   0.02357  11.59455   0.12489  50.69721       34458.00       86740.36     1.59022     1.88098     0.00000     0.22458     0.00000  1026.77942  1026.77942
    14      991.68542      299.61981    -4     2    -2   0.13544  -0.09263   0.00585   8.25877   0.11083  85.26054       12460.00       28432.36     1.49256     1.65132    55.85998     0.21823     0.00000   859.19507   859.19507
     4      546.06293      225.14717    -3     3    -3   0.09458   0.19399   0.00774   8.45357   0.10445  89.18981       41267.00      142589.36     1.82073     1.87529    20.24252     0.22596     0.00000   546.37952   546.37952
     7     1026.48914      909.53662    -5     3    -1  -0.29223   0.23217   0.01427  14.49381   0.09196  55.43421       31448.00      153712.36     1.90496     2.89518   175.60143     0.30819     0.00000   426.87662   426.87662
     6      925.02130      683.01617    -6     4    -2   0.08840   0.02650   0.00411  16.08350   0.07267  64.06248       35084.00       92797.36     1.70149     1.88194    68.00825     0.24427     0.00000   925.35229   925.35229
     3      426.64337      666.11017    -3     5    -3   0.46215  -0.10936   0.02546  14.36173   0.08291  62.75060       25348.00       39313.36     1.23621     1.24094   160.34573     0.18479     0.00000   992.02356   992.02356
    12      648.66779      500.20953    -6     6    -4   0.17267   0.03976   0.00906  18.19298   0.05794  72.04417       31312.00       53592.36     1.21412     1.56302   179.70551     0.21139     0.00000   282.89120   282.89120
     8      668.66699      570.49487    -5     5    -3   0.11728  -0.02422   0.00627  15.64315   0.07079  68.09181       19754.00       42052.36     1.09025     1.87811     0.00000     0.19030     0.00000   649.00562   649.00562
    13      868.11816      257.29025    -5     3    -3   0.07819   0.18899   0.00661  10.82899   0.08279  87.48815       12539.00       21756.36     1.19714     1.44385     3.15774     0.17896     0.00000   258.93323   258.93323
     9      331.59436      270.35638    -4     6    -6  -0.48319  -0.00777   0.02182  15.68448   0.05784  86.20985       46222.00       69143.36     1.08427     1.54072     0.01610     0.19121     0.00000   669.00482   669.00482
    10      282.61572      288.46783    -3     5    -5  -0.40325  -0.00652   0.01787  12.97836   0.07064  85.09956       13590.00       39847.36     1.81997     1.84312   173.90379     0.20949     0.00000   868.35486   868.35486
    19      258.62314      619.59692    -3     7    -5  -0.01919  -0.37677   0.00996  19.09404   0.05963  65.97984       12583.00       24960.36     1.17007     1.69908   177.59859     0.21349     0.00000   439.09415   439.09415
    17      858.89459      567.50909    -7     5    -3   0.16358  -0.27756   0.01109  18.25017   0.05967  69.39242        8471.00       17189.36     1.23571     1.54731   178.63812     0.20796     0.00000   722.16760   722.16760
    31      475.03845      454.84216    -6     8    -6   0.01561   0.06556   0.00216  21.97115   0.04659  74.55526        2528.00        5429.36     1.08178     1.49457     1.23138     0.14727     0.00000   455.00702   455.00702
    20      463.67026      498.15375    -5     7    -5   0.37121  -0.10630   0.01967  19.31750   0.05461  71.98117        1203.00        3265.36     1.31501     1.60459   172.16702     0.10324     0.00000  1013.00873  1013.00873
    21      721.86414      228.63451    -8     6    -6   0.04884   0.01857   0.00226  18.98139   0.04655  89.11569       20568.00       29926.36     1.15632     1.26676   179.13896     0.18517     0.00000   753.87921   753.87921
    15      129.38145       39.62323    -3     5    -7  -0.19043   0.26337   0.01029  13.62193   0.05947  99.85493         850.00        2957.36     1.51698     1.81453   178.41043     0.10104     0.00000   475.06744   475.06744
    18      438.69977       20.94700    -6     6    -8   0.42582   0.33549   0.01998  17.14116   0.04648 102.15980       15965.00       31525.36     1.23499     1.68735     6.60204     0.22131     0.00000   129.72997   129.72997
    30     1012.69720      601.53015    -9     5    -3   0.05721  -0.13377   0.00430  21.60255   0.05069  68.96083         454.00        2023.36     1.24448     1.98129     1.53537     0.09962     0.00000   699.00793   699.00793
    16      753.59546      232.69052    -7     5    -5  -0.32096   0.18822   0.01531  16.22886   0.05456  88.87568        7512.00       18436.36     1.08914     1.94694     0.07634     0.30018     0.00000   464.01337   464.01337
    22      145.61192      355.20535    -3     7    -7  -0.00504  -0.01382   0.00046  18.14059   0.05244  81.32785        6516.00       17026.36     1.24881     1.89529   179.07809     0.17483     0.00000   145.92276   145.92276
    23      364.76266      259.68518    -5     7    -7  -0.03786  -0.06256   0.00266  18.42623   0.04893  86.88739        8971.00       15215.36     1.20025     1.32653   179.36687     0.17981     0.00000   365.10092   365.10092
    29      784.12231       52.54436   -10     6    -8  -0.02589  -0.12272   0.00392  21.07696   0.03835 100.15338        4881.00        8680.36     1.12237     1.35862   176.42886     0.15015     0.00000   262.02887   262.02887
    33      300.68738       92.94124    -6     8   -10  -0.06557   0.09126   0.00390  21.53593   0.03833  97.34032         610.00        2434.22     1.36405     1.79847    16.01220     0.11308     0.00000   971.97046   971.97046
    24      919.93732      273.23447    -9     5    -5   0.11997  -0.05176   0.00506  19.04940   0.04744  86.63358         855.00        3890.36     1.66481     1.87703    82.86491     0.14114     0.00000   784.09113   784.09113
    26       27.57356      162.44057    -3     7    -9   0.36849   0.06778   0.01251  18.66618   0.04597  92.52655        3105.00       10587.36     1.67125     1.88092    13.17823     0.18022     0.00000   920.14697   920.14697
    25      822.87769       31.35766    -9     5    -7   0.17870  -0.15444   0.00793  18.39910   0.04356 101.33220         771.00        2345.36     1.12161     1.71399   175.81741     0.10110     0.00000   301.00323   301.00323
    27      261.67969       78.66095    -5     7    -9  -0.06011  -0.02140   0.00241  18.85147   0.04354  98.10533        3715.00        9243.36     1.39001     1.70589   169.23466     0.16870     0.00000    27.92105    27.92105
    35      698.74036      226.35596    -9     7    -7   0.05924  -0.12317   0.00476  21.75082   0.04057  89.25089           0.00           0.00     0.00000     0.00000     0.00000     0.00000     0.00000     0.00000     0.00000
    28      454.66602       47.76068    -7     7    -9   0.00100   0.03339   0.00105  19.89128   0.04052 100.53982        3461.00       10268.36     1.48157     1.88932    95.08248     0.20504     0.00000   823.13184   823.13184
    32      971.54730       85.59348   -11     5    -7  -0.31927  -0.37987   0.01599  21.19150   0.03885  97.71084         626.00        2450.36     1.43247     1.66518     9.65616     0.10987     0.00000   971.97552   971.97552
latticeparameters=   0.54329   0.54480   0.54092  89.94644  90.19109  90.25751
dpsx, dpsy: 179.00000 168.38699
dd, xcent, ycent:      150.57201      540.60303      212.87601
pitch,yaw,roll:  -0.22645   0.61642   0.00000
dev1, dev2, pixdev:   0.01233   0.01215   0.25209
deviatoric strain in crystal reference u1 u2 u3 (*10^3)
   0.53564  -2.25468  -1.66116
  -2.25468   3.30738   0.45814
  -1.66116   0.45814  -3.83007
deviatoric strain in sample reference X Y Z (*10^3)
  -0.23832  -0.91875   0.53931
  -0.91875   4.57479   0.16241
   0.53931   0.16241  -4.32351
deviatoric principal strains (*10^3):   4.74463  -0.32929  -4.40239
deviatoric strain principal axes in sample reference:
  -0.18060   0.98353   0.00687
   0.97421   0.17792   0.13877
  -0.13527  -0.03176   0.99030
deviatoric stress in crystal reference u1 u2 u3 (MPa)
       55.30299     -358.53903     -264.15762
     -358.53903      337.18881       72.85311
     -264.15762       72.85311     -388.68945
deviatoric stress in sample reference X Y Z (MPa)
      -36.94365     -205.10388      -21.73775
     -205.10388      562.11420       20.80881
      -21.73775       20.80881     -521.36823
deviatoric principal stresses (MPa):      626.21075      -99.93153     -522.47687
deviatoric stress principal axes in sample reference:
       -0.29608        0.95489        0.02292
       -0.95433       -0.29674        0.03457
        0.03981       -0.01164        0.99914
total strain in sample reference X Y Z (*10^3)
   1.53794  -0.91875   0.53931
  -0.91875   6.35105   0.16241
   0.53931   0.16241  -2.54725
total principal strains (*10^3):   6.52089   1.44697  -2.62612
total strain principal axes in sample reference:
  -0.18060   0.98353   0.00687
   0.97421   0.17792   0.13877
  -0.13527  -0.03176   0.99030
total stress in crystal reference u1 u2 u3 (MPa)
      576.67120     -358.53903     -264.15762
     -358.53903      858.55701       72.85311
     -264.15762       72.85311      132.67877
total stress in sample reference X Y Z (MPa)
      484.42456     -205.10388      -21.73775
     -205.10388     1083.48242       20.80881
      -21.73775       20.80881        0.00000
total principal stresses (MPa):     1147.57898      421.43671       -1.10866
total stress principal axes in sample reference:
       -0.29608        0.95489        0.02292
       -0.95433       -0.29674        0.03457
        0.03982       -0.01164        0.99914
dilatational strain (*10^-3):        1.77626
hydrostatic stress (MPa):      522.63568
Von Mises stress (MPa):     1006.30774
equivalent strain (*10^-3):        5.29156
equivalent stress (MPa):     1006.30774
maximum resolved shear stress:       22.58896
coordinates of a, b, c in X, Y, Z
   0.44451  -0.20241   0.23858
   0.19247   0.50583   0.06497
  -0.24575   0.03226   0.48112
coordinates of a*, b*, c* in X, Y, Z
   1.50616  -0.67773   0.81476
   0.65598   1.70109   0.22101
  -0.83545   0.10637   1.64683
