\\vmware-host\Shared Folders\Desktop\SiHyperlaueFinal_shielded_results\results_00035.STR
Number of grains:       1
Grain no:       1   Grainlist file index:       1    Number of peaks:      33
no   x(exp)  y(exp)  h  k  l xdev  ydev  angdev  energy  dspace  twotheta  intens   integr  xwidth   ywidth  tilt  rfactor   pearson  xcentroid  ycentroid
     2      392.62323      871.98633    -2     4    -2  -0.32955  -0.10905   0.01911  12.44806   0.11105  53.29163       58180.00      200798.48     1.79944     2.06586   178.04692     0.21537     0.00000   746.61597   746.61597
     5      746.29987      951.29913    -3     3    -1  -0.33458   0.52605   0.02158  11.59389   0.12490  50.69581       48014.00      125104.49     1.67984     1.85419   104.86434     0.19814     0.00000  1026.74268  1026.74268
    13      991.66852      299.62286    -4     2    -2   0.11806  -0.04122   0.00466   8.25872   0.11084  85.25731       48459.00       84000.49     1.23347     1.56181   179.04614     0.22724     0.00000   282.87457   282.87457
     3      546.02362      225.15665    -3     3    -3   0.12528   0.18681   0.00847   8.45287   0.10446  89.18965       38363.00       57884.49     1.22768     1.23764   174.44821     0.18272     0.00000   992.00494   992.00494
     6     1026.42139      909.53961    -5     3    -1  -0.27609   0.26596   0.01389  14.49367   0.09197  55.43209       45371.00      121309.49     1.59416     1.96344   110.33956     0.24672     0.00000   925.33698   925.33698
     7      924.97455      683.06006    -6     4    -2   0.09860   0.01856   0.00458  16.08314   0.07268  64.06037        1040.00        2241.49     1.15060     1.43242   179.40074     0.07570     0.00000    62.00956    62.00956
    36       61.80142      407.68820    -1     3    -3   0.24711   0.29345   0.01306   7.85991   0.12446  78.64947           0.00           0.00     0.00000     0.00000     0.00000     0.00000     0.00000     0.00000     0.00000
     4      426.61328      666.13092    -3     5    -3   0.45719  -0.13137   0.02523  14.36000   0.08292  62.75076       78655.00      259209.48     1.78598     1.87422     1.53588     0.23150     0.00000   546.36737   546.36737
    14      648.66724      500.24698    -6     6    -4   0.15361   0.01511   0.00801  18.19164   0.05795  72.04336       14259.00       25306.49     1.22458     1.45325     4.97933     0.19237     0.00000   258.92426   258.92426
     8      668.66663      570.52124    -5     5    -3   0.09569  -0.03536   0.00518  15.64203   0.07079  68.09088       48115.00      218166.48     1.89914     2.74488   175.44176     0.30499     0.00000   426.82016   426.82016
     9      868.07465      257.34149    -5     3    -3   0.10238   0.18013   0.00694  10.82872   0.08280  87.48553       24679.00       49989.49     1.08894     1.85482     0.03188     0.19576     0.00000   648.99811   648.99811
    11      331.58792      270.35983    -4     6    -6  -0.50091  -0.03251   0.02265  15.68260   0.05785  86.21120       32489.00       86823.49     1.64099     1.93903   117.91566     0.22547     0.00000   868.37939   868.37939
    10      282.60818      288.46860    -3     5    -5  -0.42593  -0.03250   0.01892  12.97671   0.07064  85.10115       62710.00       91648.49     1.08453     1.49762   179.99223     0.19060     0.00000   669.00470   669.00470
    19      258.61197      619.59473    -3     7    -5  -0.05904  -0.38566   0.01072  19.09132   0.05964  65.98075       23553.00       46042.49     1.24452     1.67927     7.45562     0.24001     0.00000   129.70033   129.70033
    17      858.86188      567.53845    -7     5    -3   0.16782  -0.27436   0.01118  18.24957   0.05968  69.39045        8691.00       21711.49     1.08610     1.94520     0.05126     0.30286     0.00000   464.01529   464.01529
    31      474.99200      454.85809    -6     8    -6   0.03875   0.04500   0.00245  21.96880   0.04659  74.55555         513.00        2289.49     1.24550     2.04646     5.75493     0.10485     0.00000   699.03693   699.03693
    20      463.66898      498.16901    -5     7    -5   0.34661  -0.12622   0.01848  19.31537   0.05462  71.98146       15027.00       30379.49     1.17267     1.73245   177.75491     0.21972     0.00000   439.08160   439.08160
    22      721.84155      228.64246    -8     6    -6   0.06204   0.03545   0.00300  18.98044   0.04655  89.11409       25754.00       38319.49     1.17467     1.29171   177.29759     0.19822     0.00000   753.87262   753.87262
    15      129.38715       39.61765    -3     5    -7  -0.22473   0.22231   0.01031  13.62022   0.05948  99.85746       16047.00       34136.49     1.45119     1.58273    61.59605     0.22353     0.00000   859.19989   859.19989
    18      438.70041       20.97294    -6     6    -8   0.42635   0.30107   0.01948  17.13964   0.04649 102.16033       10227.00       19959.49     1.22087     1.50905   177.93602     0.21514     0.00000   722.16693   722.16693
    30     1012.69904      601.60327    -9     5    -3   0.01076  -0.16406   0.00417  21.60239   0.05069  68.95825        5686.00        9813.49     1.11510     1.36258   176.98000     0.15038     0.00000   262.01337   262.01337
    16      753.58588      232.69748    -7     5    -5  -0.32219   0.21005   0.01564  16.22814   0.05456  88.87384         965.00        3402.49     1.58660     1.75928     0.65174     0.11303     0.00000   475.04523   475.04523
    21      145.60423      355.18625    -3     7    -7  -0.04946  -0.02644   0.00222  18.13798   0.05245  81.32986        1419.00        3599.49     1.31143     1.49056   170.03455     0.10832     0.00000  1012.99670  1012.99670
    23      364.74826      259.68661    -5     7    -7  -0.04399  -0.08220   0.00333  18.42411   0.04893  86.88856        7744.00       20705.49     1.26681     1.90164   179.30780     0.18405     0.00000   145.91618   145.91618
    29      784.13074       52.58694   -10     6    -8  -0.03806  -0.12372   0.00411  21.07625   0.03835 100.15085        4426.00       12443.49     1.46367     1.78520    82.54600     0.22126     0.00000   823.14105   823.14105
    32      300.67438       93.03034    -6     8   -10  -0.06658  -0.02464   0.00276  21.53351   0.03834  97.34194        3044.00        6392.49     1.07498     1.51465     2.20715     0.16000     0.00000   454.99292   454.99292
    25      919.89740      273.33963    -9     5    -5   0.13503  -0.10908   0.00634  19.04908   0.04744  86.63067         946.00        4156.49     1.51962     1.82557   166.88058     0.15056     0.00000   784.09637   784.09637
    26       27.56837      162.41695    -3     7    -9   0.31835   0.04105   0.01075  18.66357   0.04597  92.52928         846.00        2653.49     1.13975     1.85088   176.99892     0.10123     0.00000   300.99582   300.99582
    24      822.85461       31.41478    -9     5    -7   0.19622  -0.16268   0.00860  18.39860   0.04356 101.32930       10656.00       17485.49     1.20246     1.29151     1.14239     0.18152     0.00000   365.09445   365.09445
    27      261.67719       78.66080    -5     7    -9  -0.07416  -0.05265   0.00325  18.84929   0.04354  98.10719        4056.00       12000.49     1.60574     1.80251    18.88993     0.19373     0.00000   920.15375   920.15375
    35      698.72455      226.30919    -9     7    -7   0.06646  -0.05452   0.00346  21.74964   0.04058  89.24948           0.00           0.00     0.00000     0.00000     0.00000     0.00000     0.00000     0.00000     0.00000
    28      454.66678       47.76021    -7     7    -9   0.00009   0.02701   0.00085  19.88953   0.04053 100.54025        4339.00       10824.49     1.39756     1.74381   169.17442     0.17656     0.00000    27.90714    27.90714
    33      971.56189       85.55345   -11     5    -7  -0.35805  -0.27309   0.01506  21.19136   0.03885  97.70706         652.00        2589.49     1.37022     1.70586     6.68319     0.11437     0.00000   971.99493   971.99493
latticeparameters=   0.54325   0.54484   0.54093  89.94904  90.19343  90.25814
dpsx, dpsy: 179.00000 168.38699
dd, xcent, ycent:      150.57201      540.60303      212.87601
pitch,yaw,roll:  -0.22645   0.61642   0.00000
dev1, dev2, pixdev:   0.01233   0.01209   0.25479
deviatoric strain in crystal reference u1 u2 u3 (*10^3)
   0.45625  -2.26030  -1.68151
  -2.26030   3.38202   0.43541
  -1.68151   0.43541  -3.82512
deviatoric strain in sample reference X Y Z (*10^3)
  -0.26201  -0.86825   0.49369
  -0.86825   4.63038   0.16960
   0.49369   0.16960  -4.35522
deviatoric principal strains (*10^3):   4.78066  -0.34533  -4.42219
deviatoric strain principal axes in sample reference:
  -0.16880   0.98561   0.00918
   0.97781   0.16628   0.12742
  -0.12406  -0.03048   0.99181
deviatoric stress in crystal reference u1 u2 u3 (MPa)
       47.24072     -359.43219     -267.39304
     -359.43219      344.79208       69.23831
     -267.39304       69.23831     -388.17456
deviatoric stress in sample reference X Y Z (MPa)
      -38.28244     -199.88509      -27.42670
     -199.88509      567.94196       20.71864
      -27.42670       20.71864     -525.80127
deviatoric principal stresses (MPa):      628.58154      -97.29491     -527.42834
deviatoric stress principal axes in sample reference:
       -0.28794        0.95735        0.02402
       -0.95623       -0.28879        0.04724
        0.05216       -0.00937        0.99859
total strain in sample reference X Y Z (*10^3)
   1.52935  -0.86825   0.49369
  -0.86825   6.42175   0.16960
   0.49369   0.16960  -2.56386
total principal strains (*10^3):   6.57203   1.44603  -2.63082
total strain principal axes in sample reference:
  -0.16880   0.98561   0.00918
   0.97781   0.16628   0.12742
  -0.12406  -0.03048   0.99181
total stress in crystal reference u1 u2 u3 (MPa)
      573.04199     -359.43219     -267.39304
     -359.43219      870.59338       69.23831
     -267.39304       69.23831      137.62674
total stress in sample reference X Y Z (MPa)
      487.51886     -199.88509      -27.42670
     -199.88509     1093.74329       20.71864
      -27.42670       20.71864        0.00000
total principal stresses (MPa):     1154.38269      428.50641       -1.62706
total stress principal axes in sample reference:
       -0.28794        0.95735        0.02402
       -0.95623       -0.28879        0.04724
        0.05216       -0.00937        0.99859
dilatational strain (*10^-3):        1.79136
hydrostatic stress (MPa):      527.08734
Von Mises stress (MPa):     1011.99561
equivalent strain (*10^-3):        5.32477
equivalent stress (MPa):     1011.99561
maximum resolved shear stress:       16.05469
coordinates of a, b, c in X, Y, Z
   0.44443  -0.20244   0.23852
   0.19253   0.50580   0.06497
  -0.24573   0.03226   0.48109
coordinates of a*, b*, c* in X, Y, Z
   1.50608  -0.67793   0.81474
   0.65607   1.70074   0.22108
  -0.83530   0.10642   1.64673
