\\vmware-host\Shared Folders\Desktop\SiHyperlaueFinal_shielded_results\results_00128.STR
Number of grains:       1
Grain no:       1   Grainlist file index:       1    Number of peaks:      32
no   x(exp)  y(exp)  h  k  l xdev  ydev  angdev  energy  dspace  twotheta  intens   integr  xwidth   ywidth  tilt  rfactor   pearson  xcentroid  ycentroid
     3      392.64227      872.04218    -2     4    -2  -0.29496  -0.11975   0.01719  12.44996   0.11103  53.28951       23402.00       37020.09     1.24661     1.24878    93.94464     0.18772     0.00000   992.03247   992.03247
     6      746.39624      951.33673    -3     3    -1  -0.39110   0.48278   0.02407  11.59464   0.12489  50.69634       32118.00       85046.09     1.57875     1.98931    73.92594     0.26434     0.00000   925.34894   925.34894
    13      991.68658      299.61557    -4     2    -2   0.14559  -0.10850   0.00641   8.25862   0.11083  85.26173       12119.00       20747.09     1.18872     1.42383     3.44878     0.17710     0.00000   258.93774   258.93774
     4      546.08264      225.18295    -3     3    -3   0.08063   0.16154   0.00650   8.45347   0.10445  89.18960       36192.00      133738.09     1.83409     1.88467    19.80063     0.22309     0.00000   546.38849   546.38849
     7     1026.48059      909.53564    -5     3    -1  -0.27259   0.22240   0.01336  14.49357   0.09196  55.43478       28589.00      140156.09     1.90956     2.95044   175.79240     0.31049     0.00000   426.89832   426.89832
     5      925.01672      683.00690    -6     4    -2   0.10265   0.03020   0.00478  16.08329   0.07267  64.06285       29869.00       74874.09     1.57371     1.83896   167.65558     0.22460     0.00000  1026.77893  1026.77893
     2      426.65720      666.13354    -3     5    -3   0.45658  -0.09790   0.02514  14.36191   0.08291  62.74878       26059.00       79185.09     1.67291     2.02122   178.38852     0.21172     0.00000   746.69208   746.69208
    12      648.66718      500.20724    -6     6    -4   0.18051   0.05177   0.00951  18.19289   0.05794  72.04362       30203.00       50087.09     1.20523     1.49570   179.07193     0.21213     0.00000   282.89255   282.89255
     8      668.66687      570.50165    -5     5    -3   0.12485  -0.01938   0.00665  15.64310   0.07079  68.09119       18709.00       40073.09     1.08933     1.87736     0.00000     0.19046     0.00000   649.00366   649.00366
    14      868.13580      257.28809    -5     3    -3   0.06944   0.17763   0.00613  10.82882   0.08280  87.48899       11507.00       26822.09     1.50734     1.67726    34.41954     0.21650     0.00000   859.20453   859.20453
     9      331.59995      270.39612    -4     6    -6  -0.48259  -0.03214   0.02182  15.68437   0.05784  86.20887       44522.00       66282.09     1.08452     1.52396     0.01462     0.19146     0.00000   669.00726   669.00726
    10      282.61908      288.50125    -3     5    -5  -0.40004  -0.02162   0.01775  12.97828   0.07064  85.09841       12412.00       36409.09     1.83283     1.83657   140.27029     0.20721     0.00000   868.35590   868.35590
    19      258.62640      619.60620    -3     7    -5  -0.01301  -0.34557   0.00910  19.09429   0.05963  65.97767       12067.00       24467.09     1.17956     1.71524   177.47798     0.21445     0.00000   439.09079   439.09079
    17      858.89832      567.49390    -7     5    -3   0.16868  -0.26572   0.01105  18.24995   0.05968  69.39266        8038.00       16696.09     1.24672     1.56224   177.82480     0.21085     0.00000   722.16040   722.16040
    31      475.07242      454.84167    -6     8    -6  -0.01129   0.08427   0.00261  21.97111   0.04659  74.55415        2515.00        5445.09     1.08213     1.49268     1.80436     0.14957     0.00000   454.98251   454.98251
    20      463.67035      498.14725    -5     7    -5   0.37845  -0.07848   0.01995  19.31752   0.05461  71.97990        1131.00        3105.09     1.32893     1.60821   171.39664     0.10150     0.00000  1013.00220  1013.00220
    22      721.87091      228.63103    -8     6    -6   0.04898   0.01615   0.00225  18.98112   0.04655  89.11607        6702.00       16727.09     1.23994     1.88276   178.94421     0.16921     0.00000   145.92484   145.92484
    15      129.38554       39.63283    -3     5    -7  -0.19072   0.26568   0.01035  13.62176   0.05947  99.85427         808.00        3056.09     1.50845     1.83810   178.76543     0.10752     0.00000   475.07236   475.07236
    18      438.70294       20.95810    -6     6    -8   0.42640   0.32365   0.01981  17.14092   0.04649 102.15985       15349.00       29573.09     1.21294     1.68332     5.83550     0.21289     0.00000   129.72984   129.72984
    30     1012.71149      601.53217    -9     5    -3   0.05417  -0.15062   0.00458  21.60217   0.05069  68.96168         433.00        1993.09     1.28103     2.00436     5.73407     0.09679     0.00000   698.99805   698.99805
    16      753.60016      232.68793    -7     5    -5  -0.31840   0.18328   0.01515  16.22863   0.05456  88.87617        7300.00       17623.09     1.09092     1.94438   179.98555     0.29714     0.00000   464.01031   464.01031
    21      145.61703      355.23709    -3     7    -7  -0.00200  -0.01838   0.00055  18.14055   0.05245  81.32624       19929.00       28701.09     1.15251     1.25492   179.01537     0.18075     0.00000   753.89069   753.89069
    23      364.77261      259.68655    -5     7    -7  -0.04181  -0.05053   0.00252  18.42608   0.04893  86.88654        8525.00       14649.09     1.19144     1.35039     1.07194     0.17978     0.00000   365.10263   365.10263
    29      784.13367       52.52985   -10     6    -8  -0.02998  -0.12422   0.00401  21.07664   0.03835 100.15434        4775.00        8351.09     1.12099     1.33947   176.52437     0.14567     0.00000   262.01895   262.01895
    32      300.68137       92.97291    -6     8   -10  -0.05524   0.06771   0.00308  21.53566   0.03833  97.33983         614.00        2363.09     1.32530     1.83192    10.29329     0.10602     0.00000   971.98785   971.98785
    25      919.94659      273.22784    -9     5    -5   0.12053  -0.06140   0.00518  19.04908   0.04744  86.63457         815.00        2510.09     1.12791     1.79309   176.75024     0.10175     0.00000   300.97049   300.97049
    26       27.58062      162.47725    -3     7    -9   0.36768   0.05216   0.01243  18.66601   0.04597  92.52538        2960.00       10238.09     1.67967     1.88670    18.18272     0.18112     0.00000   920.14825   920.14825
    24      822.89008       31.35139    -9     5    -7   0.17423  -0.16715   0.00801  18.39882   0.04356 101.33331         799.00        3676.09     1.64672     1.88683    82.51435     0.13743     0.00000   784.08478   784.08478
    27      261.68018       78.66632    -5     7    -9  -0.05643  -0.01782   0.00224  18.85124   0.04354  98.10480        3640.00        8871.09     1.38210     1.65470   169.25670     0.16378     0.00000    27.93340    27.93340
    35      698.75519      226.28081    -9     7    -7   0.05110  -0.05272   0.00285  21.75052   0.04057  89.25120           0.00           0.00     0.00000     0.00000     0.00000     0.00000     0.00000     0.00000     0.00000
    28      454.66553       47.76349    -7     7    -9   0.00556   0.03036   0.00098  19.89100   0.04053 100.53984        3456.00       10376.09     1.50249     1.89809    85.41503     0.20223     0.00000   823.12726   823.12726
    33      971.57288       85.51772   -11     5    -7  -0.33365  -0.32953   0.01537  21.19116   0.03885  97.71227         615.00        2440.83     1.37278     1.71477    15.85652     0.11131     0.00000   971.99982   971.99982
latticeparameters=   0.54329   0.54480   0.54093  89.94926  90.19223  90.25861
dpsx, dpsy: 179.00000 168.38699
dd, xcent, ycent:      150.57201      540.60303      212.87601
pitch,yaw,roll:  -0.22645   0.61642   0.00000
dev1, dev2, pixdev:   0.01226   0.01205   0.24593
deviatoric strain in crystal reference u1 u2 u3 (*10^3)
   0.53851  -2.26426  -1.67109
  -2.26426   3.29915   0.43359
  -1.67109   0.43359  -3.82476
deviatoric strain in sample reference X Y Z (*10^3)
  -0.22673  -0.92082   0.52371
  -0.92082   4.57258   0.14038
   0.52371   0.14038  -4.33294
deviatoric principal strains (*10^3):   4.74339  -0.32445  -4.40602
deviatoric strain principal axes in sample reference:
  -0.18169   0.98334   0.00473
   0.97465   0.17944   0.13362
  -0.13055  -0.02888   0.99102
deviatoric stress in crystal reference u1 u2 u3 (MPa)
       55.59222     -360.06311     -265.73615
     -360.06311      336.34918       68.95012
     -265.73615       68.95012     -388.15253
deviatoric stress in sample reference X Y Z (MPa)
      -35.21387     -205.22078      -24.13457
     -205.22078      562.14020       17.37292
      -24.13457       17.37292     -523.13745
deviatoric principal stresses (MPa):      626.33984      -98.17026     -524.38074
deviatoric stress principal axes in sample reference:
       -0.29691        0.95468        0.02066
       -0.95379       -0.29754        0.04200
        0.04625       -0.00724        0.99890
total strain in sample reference X Y Z (*10^3)
   1.55556  -0.92082   0.52371
  -0.92082   6.35486   0.14038
   0.52371   0.14038  -2.55065
total principal strains (*10^3):   6.52567   1.45784  -2.62373
total strain principal axes in sample reference:
  -0.18169   0.98334   0.00473
   0.97465   0.17944   0.13362
  -0.13055  -0.02888   0.99102
total stress in crystal reference u1 u2 u3 (MPa)
      578.72968     -360.06311     -265.73615
     -360.06311      859.48663       68.95012
     -265.73615       68.95012      134.98492
total stress in sample reference X Y Z (MPa)
      487.92361     -205.22078      -24.13457
     -205.22078     1085.27771       17.37292
      -24.13457       17.37292        0.00000
total principal stresses (MPa):     1149.47742      424.96719       -1.24326
total stress principal axes in sample reference:
       -0.29691        0.95468        0.02066
       -0.95379       -0.29754        0.04200
        0.04625       -0.00724        0.99890
dilatational strain (*10^-3):        1.78229
hydrostatic stress (MPa):      524.40045
Von Mises stress (MPa):     1007.65277
equivalent strain (*10^-3):        5.29263
equivalent stress (MPa):     1007.65277
maximum resolved shear stress:       22.09335
coordinates of a, b, c in X, Y, Z
   0.44451  -0.20241   0.23858
   0.19246   0.50583   0.06496
  -0.24577   0.03224   0.48112
coordinates of a*, b*, c* in X, Y, Z
   1.50615  -0.67769   0.81480
   0.65595   1.70111   0.22108
  -0.83546   0.10639   1.64683
