\\vmware-host\Shared Folders\Desktop\SiHyperlaueFinal_shielded_results\results_00086.STR
Number of grains:       1
Grain no:       1   Grainlist file index:       1    Number of peaks:      33
no   x(exp)  y(exp)  h  k  l xdev  ydev  angdev  energy  dspace  twotheta  intens   integr  xwidth   ywidth  tilt  rfactor   pearson  xcentroid  ycentroid
     2      392.63416      871.96967    -2     4    -2  -0.31718  -0.10541   0.01839  12.44749   0.11105  53.29207       42254.00      142205.23     1.73350     2.06003   178.57295     0.21203     0.00000   746.65790   746.65790
     5      746.35687      951.25531    -3     3    -1  -0.36058   0.53248   0.02293  11.59326   0.12490  50.69748       40693.00      104022.23     1.74511     1.75635    93.47123     0.21415     0.00000  1026.76990  1026.76990
    13      991.67914      299.61676    -4     2    -2   0.12037  -0.06779   0.00501   8.25853   0.11084  85.25923       38606.00       66611.23     1.22131     1.56433   179.34000     0.21996     0.00000   282.88818   282.88818
     3      546.05554      225.13759    -3     3    -3   0.10411   0.19301   0.00798   8.45266   0.10446  89.19050       29665.00       45959.23     1.24213     1.24453   140.19977     0.18601     0.00000   992.02734   992.02734
     7     1026.45715      909.48682    -5     3    -1  -0.27928   0.26746   0.01404  14.49294   0.09197  55.43452         439.00        1518.23     1.19773     1.55582     2.29982     0.07572     0.00000    62.01305    62.01305
     6      925.00732      683.01257    -6     4    -2   0.09268   0.02802   0.00431  16.08247   0.07268  64.06248       39691.00      104594.23     1.61488     1.94609    47.96503     0.23499     0.00000   925.35266   925.35266
    36       61.84463      407.70053    -1     3    -3   0.21373   0.29014   0.01199   7.85970   0.12446  78.64892           0.00           0.00     0.00000     0.00000     0.00000     0.00000     0.00000     0.00000     0.00000
     4      426.63776      666.11090    -3     5    -3   0.45352  -0.12545   0.02502  14.35940   0.08292  62.75143       56245.00      189469.23     1.81481     1.87174    13.88461     0.22812     0.00000   546.37903   546.37903
    14      648.66718      500.21609    -6     6    -4   0.17398   0.02410   0.00908  18.19097   0.05795  72.04471       13282.00       23377.23     1.20620     1.45961     3.96337     0.18609     0.00000   258.92538   258.92538
     8      668.66699      570.49658    -5     5    -3   0.11769  -0.03477   0.00633  15.64141   0.07079  68.09230       37584.00      181650.23     1.90444     2.86093   175.38718     0.30734     0.00000   426.85519   426.85519
    11      868.10925      257.28061    -5     3    -3   0.07997   0.21471   0.00734  10.82848   0.08280  87.48716       20041.00       57866.23     1.78818     1.87609    78.71352     0.21921     0.00000   868.37323   868.37323
    10      331.59357      270.35379    -4     6    -6  -0.49638  -0.03087   0.02244  15.68217   0.05785  86.21148       52661.00       78736.23     1.08452     1.53759     0.08021     0.19412     0.00000   668.99994   668.99994
     9      282.61328      288.46707    -3     5    -5  -0.42095  -0.03326   0.01870  12.97635   0.07065  85.10129       21701.00       45642.23     1.08887     1.87065   179.95557     0.19329     0.00000   649.00427   649.00427
    19      258.61929      619.58875    -3     7    -5  -0.04955  -0.38348   0.01051  19.09061   0.05964  65.98084       19141.00       37608.23     1.23332     1.69407     6.53361     0.22760     0.00000   129.70647   129.70647
    17      858.88544      567.50494    -7     5    -3   0.16773  -0.27286   0.01114  18.24890   0.05968  69.39235        8142.00       19835.23     1.08840     1.94293     0.08852     0.29901     0.00000   464.01044   464.01044
    31      475.02841      454.85776    -6     8    -6   0.01938   0.03150   0.00140  21.96803   0.04659  74.55638         492.00        2033.23     1.32864     1.91145     9.34373     0.10042     0.00000   698.96808   698.96808
    20      463.66968      498.15399    -5     7    -5   0.36385  -0.12516   0.01937  19.31465   0.05462  71.98227       13584.00       27375.23     1.17488     1.71206   177.66550     0.22025     0.00000   439.08124   439.08124
    22      721.86127      228.63329    -8     6    -6   0.05377   0.02482   0.00253  18.98000   0.04655  89.11537       22814.00       33380.23     1.15833     1.26908   178.97969     0.19216     0.00000   753.87665   753.87665
    15      129.37675       39.62258    -3     5    -7  -0.21249   0.22788   0.01009  13.61999   0.05948  99.85687       13637.00       31039.23     1.49662     1.64712    25.04477     0.22308     0.00000   859.20868   859.20868
    18      438.70151       20.95434    -6     6    -8   0.42768   0.31566   0.01974  17.13935   0.04649 102.16058        8902.00       18029.23     1.24683     1.54714   177.39726     0.21008     0.00000   722.15125   722.15125
    30     1012.69885      601.56464    -9     5    -3   0.03527  -0.16555   0.00453  21.60161   0.05069  68.96050        5167.00        9319.23     1.12002     1.36468   177.27361     0.15813     0.00000   262.01926   262.01926
    16      753.59418      232.69164    -7     5    -5  -0.31889   0.19477   0.01531  16.22777   0.05456  88.87519         920.00        3297.23     1.55485     1.78698   174.00095     0.11236     0.00000   475.05823   475.05823
    21      145.61115      355.20673    -3     7    -7  -0.04648  -0.04264   0.00234  18.13749   0.05245  81.32958        1254.00        3439.23     1.33905     1.59914   172.68948     0.10762     0.00000  1013.02472  1013.02472
    23      364.75781      259.68549    -5     7    -7  -0.04329  -0.08686   0.00343  18.42362   0.04893  86.88893        7130.00       18507.23     1.25083     1.90156   179.36917     0.17366     0.00000   145.93120   145.93120
    29      784.11188       52.57576   -10     6    -8  -0.01607  -0.13145   0.00408  21.07593   0.03835 100.15200        3778.00       11216.23     1.58910     1.73056    69.75964     0.21235     0.00000   823.12451   823.12451
    32      300.67105       92.97569    -6     8   -10  -0.05883   0.03053   0.00256  21.53309   0.03834  97.34192        2645.00        5797.23     1.08482     1.49743     1.54612     0.15472     0.00000   454.99966   454.99966
    24      919.95288      273.27167    -9     5    -5   0.09204  -0.06997   0.00425  19.04865   0.04744  86.63242        9556.00       15949.23     1.19903     1.31344     2.51229     0.17879     0.00000   365.11630   365.11630
    26       27.57745      162.44489    -3     7    -9   0.31375   0.02676   0.01057  18.66321   0.04597  92.52852         850.00        2680.23     1.12200     1.77542   177.57983     0.10882     0.00000   300.99820   300.99820
    25      822.86890       31.37600    -9     5    -7   0.18358  -0.14401   0.00793  18.39834   0.04356 101.33050         910.00        3761.23     1.55810     1.82815   164.03062     0.13527     0.00000   784.07507   784.07507
    27      261.67960       78.65920    -5     7    -9  -0.07287  -0.04832   0.00315  18.84893   0.04354  98.10704        3362.00       11285.23     1.69630     1.86250    23.75793     0.18641     0.00000   920.15625   920.15625
    35      698.73590      226.36926    -9     7    -7   0.06646  -0.13344   0.00521  21.74913   0.04058  89.25070           0.00           0.00     0.00000     0.00000     0.00000     0.00000     0.00000     0.00000     0.00000
    28      454.66574       47.76091    -7     7    -9   0.00467   0.02098   0.00068  19.88918   0.04053 100.54059        3961.00        9695.23     1.38412     1.69633   168.54170     0.17125     0.00000    27.93189    27.93189
    33      971.53333       85.54224   -11     5    -7  -0.32696  -0.28968   0.01445  21.19103   0.03885  97.70866         611.00        2439.23     1.39688     1.69651     8.17119     0.11059     0.00000   971.97162   971.97162
latticeparameters=   0.54323   0.54486   0.54092  89.94923  90.19426  90.25766
dpsx, dpsy: 179.00000 168.38699
dd, xcent, ycent:      150.57201      540.60303      212.87601
pitch,yaw,roll:  -0.22645   0.61642   0.00000
dev1, dev2, pixdev:   0.01223   0.01208   0.25418
deviatoric strain in crystal reference u1 u2 u3 (*10^3)
   0.43223  -2.25624  -1.68872
  -2.25624   3.41863   0.43372
  -1.68872   0.43372  -3.83755
deviatoric strain in sample reference X Y Z (*10^3)
  -0.26768  -0.84703   0.48855
  -0.84703   4.65569   0.17940
   0.48855   0.17940  -4.37470
deviatoric principal strains (*10^3):   4.79835  -0.34446  -4.44059
deviatoric strain principal axes in sample reference:
  -0.16391   0.98642   0.01056
   0.97885   0.16130   0.12584
  -0.12242  -0.03096   0.99199
deviatoric stress in crystal reference u1 u2 u3 (MPa)
       44.80904     -358.78665     -268.54044
     -358.78665      348.52502       68.97091
     -268.54044       68.97091     -389.42850
deviatoric stress in sample reference X Y Z (MPa)
      -38.36446     -197.63396      -28.13390
     -197.63396      570.36578       21.84199
      -28.13390       21.84199     -528.09576
deviatoric principal stresses (MPa):      629.62537      -95.90482     -529.81494
deviatoric stress principal axes in sample reference:
       -0.28459        0.95832        0.02500
       -0.95718       -0.28550        0.04788
        0.05302       -0.01030        0.99854
total strain in sample reference X Y Z (*10^3)
   1.53150  -0.84703   0.48855
  -0.84703   6.45487   0.17940
   0.48855   0.17940  -2.57551
total principal strains (*10^3):   6.59753   1.45472  -2.64141
total strain principal axes in sample reference:
  -0.16391   0.98642   0.01056
   0.97885   0.16130   0.12584
  -0.12242  -0.03096   0.99199
total stress in crystal reference u1 u2 u3 (MPa)
      572.90485     -358.78665     -268.54044
     -358.78665      876.62079       68.97091
     -268.54044       68.97091      138.66730
total stress in sample reference X Y Z (MPa)
      489.73132     -197.63396      -28.13390
     -197.63396     1098.46155       21.84199
      -28.13390       21.84199        0.00000
total principal stresses (MPa):     1157.72119      432.19092       -1.71916
total stress principal axes in sample reference:
       -0.28459        0.95832        0.02500
       -0.95718       -0.28550        0.04788
        0.05302       -0.01030        0.99854
dilatational strain (*10^-3):        1.79918
hydrostatic stress (MPa):      529.39764
Von Mises stress (MPa):     1014.63635
equivalent strain (*10^-3):        5.34550
equivalent stress (MPa):     1014.63635
maximum resolved shear stress:       13.91008
coordinates of a, b, c in X, Y, Z
   0.44440  -0.20242   0.23852
   0.19252   0.50581   0.06499
  -0.24575   0.03224   0.48106
coordinates of a*, b*, c* in X, Y, Z
   1.50606  -0.67791   0.81480
   0.65597   1.70065   0.22112
  -0.83535   0.10636   1.64669
