\\vmware-host\Shared Folders\Desktop\SiHyperlaueFinal_shielded_results\results_00107.STR
Number of grains:       1
Grain no:       1   Grainlist file index:       1    Number of peaks:      32
no   x(exp)  y(exp)  h  k  l xdev  ydev  angdev  energy  dspace  twotheta  intens   integr  xwidth   ywidth  tilt  rfactor   pearson  xcentroid  ycentroid
     2      392.63947      871.99115    -2     4    -2  -0.29359  -0.11016   0.01707  12.44945   0.11103  53.29124       29556.00       94285.76     1.68837     2.04043   178.56499     0.21106     0.00000   746.68372   746.68372
     5      746.38708      951.27783    -3     3    -1  -0.38710   0.50479   0.02404  11.59437   0.12489  50.69770       32896.00       82194.76     1.67995     1.78586    74.05495     0.21450     0.00000  1026.77698  1026.77698
    14      991.68646      299.61606    -4     2    -2   0.12988  -0.09764   0.00573   8.25870   0.11083  85.26103       11792.00       27380.75     1.49966     1.68089    41.40034     0.21660     0.00000   859.19989   859.19989
     4      546.07324      225.15196    -3     3    -3   0.08969   0.19214   0.00756   8.45342   0.10445  89.18962       39375.00      138326.75     1.82881     1.87617    22.51329     0.22500     0.00000   546.37903   546.37903
     7     1026.46423      909.49109    -5     3    -1  -0.27313   0.24311   0.01356  14.49351   0.09196  55.43547       30130.00      147749.75     1.90635     2.91594   175.62138     0.30941     0.00000   426.88303   426.88303
     6      924.99835      682.99017    -6     4    -2   0.10910   0.03613   0.00508  16.08329   0.07267  64.06325       33865.00       89212.76     1.69221     1.82540    72.85614     0.25347     0.00000   925.35272   925.35272
     3      426.64825      666.11444    -3     5    -3   0.46458  -0.10465   0.02558  14.36151   0.08291  62.75012       24035.00       37683.75     1.24608     1.24645    89.35326     0.18484     0.00000   992.03137   992.03137
    12      648.66699      500.21048    -6     6    -4   0.17803   0.03927   0.00933  18.19275   0.05794  72.04416       30437.00       51524.75     1.21322     1.53531   179.42793     0.21163     0.00000   282.90005   282.90005
     8      668.66687      570.49542    -5     5    -3   0.12168  -0.02554   0.00650  15.64295   0.07079  68.09187       19124.00       40748.75     1.08949     1.87727     0.00000     0.19103     0.00000   649.00952   649.00952
    13      868.13788      257.27313    -5     3    -3   0.05779   0.20210   0.00661  10.82889   0.08280  87.48839       11896.00       20832.75     1.19860     1.44697     3.44998     0.18025     0.00000   258.93723   258.93723
     9      331.59543      270.36316    -4     6    -6  -0.47793  -0.00819   0.02158  15.68409   0.05784  86.20945       44978.00       67359.76     1.08476     1.53921   179.99535     0.19127     0.00000   669.00311   669.00311
    10      282.61642      288.48193    -3     5    -5  -0.39776  -0.01327   0.01764  12.97802   0.07064  85.09910       12865.00       38496.75     1.74686     1.93756   114.61151     0.19964     0.00000   868.35846   868.35846
    19      258.62289      619.59375    -3     7    -5  -0.01179  -0.35937   0.00945  19.09365   0.05963  65.97905       12041.00       24185.75     1.17495     1.70978   177.56989     0.21317     0.00000   439.08115   439.08115
    17      858.89789      567.49634    -7     5    -3   0.16002  -0.27407   0.01089  18.24997   0.05968  69.39291        8092.00       16701.75     1.23671     1.56650   177.95474     0.20940     0.00000   722.15094   722.15094
    31      475.08942      454.82623    -6     8    -6  -0.02875   0.08695   0.00300  21.97077   0.04659  74.55492        2417.00        5316.75     1.08549     1.53558   179.27893     0.14409     0.00000   455.00873   455.00873
    20      463.67007      498.14291    -5     7    -5   0.37817  -0.08938   0.01997  19.31717   0.05461  71.98080        1147.00        3204.75     1.31516     1.60136   173.06483     0.10719     0.00000  1013.01544  1013.01544
    21      721.87262      228.63420    -8     6    -6   0.04316   0.01873   0.00202  18.98115   0.04655  89.11570       19902.00       29142.75     1.15494     1.26975   179.25906     0.18672     0.00000   753.89087   753.89087
    15      129.38947       39.62795    -3     5    -7  -0.19539   0.26389   0.01042  13.62147   0.05947  99.85465         809.00        2994.75     1.49424     1.82096   177.73450     0.10405     0.00000   475.06384   475.06384
    18      438.70172       20.95447    -6     6    -8   0.42924   0.33080   0.02002  17.14075   0.04649 102.15964       15733.00       30286.75     1.21812     1.67680     6.29190     0.21599     0.00000   129.72395   129.72395
    30     1012.69885      601.53918    -9     5    -3   0.05025  -0.16137   0.00473  21.60229   0.05069  68.96171         465.00        1963.75     1.21788     2.03150     5.39775     0.09523     0.00000   699.01123   699.01123
    16      753.59387      232.69005    -7     5    -5  -0.31722   0.18784   0.01516  16.22867   0.05456  88.87574        7507.00       18129.75     1.09085     1.94253   179.94739     0.29924     0.00000   464.01535   464.01535
    22      145.61223      355.19998    -3     7    -7  -0.00028   0.00263   0.00008  18.14006   0.05245  81.32719        6392.00       16629.75     1.24408     1.90140   179.33638     0.16902     0.00000   145.94250   145.94250
    23      364.76199      259.68597    -5     7    -7  -0.03083  -0.05760   0.00233  18.42579   0.04893  86.88703        8637.00       14667.75     1.19674     1.32429     0.66862     0.17834     0.00000   365.11008   365.11008
    29      784.16309       52.50615   -10     6    -8  -0.06543  -0.08507   0.00371  21.07670   0.03835 100.15341        4735.00        8255.75     1.12415     1.35509   177.15498     0.14021     0.00000   262.01865   262.01865
    33      300.68402       93.01519    -6     8   -10  -0.05680   0.02182   0.00239  21.53532   0.03834  97.34006         610.00        2434.22     1.36405     1.79847    16.01220     0.11308     0.00000   971.97046   971.97046
    24      919.93988      273.25146    -9     5    -5   0.11522  -0.07456   0.00514  19.04923   0.04744  86.63392         778.00        3635.75     1.65284     1.94949   101.10155     0.13186     0.00000   784.10107   784.10107
    26       27.58393      162.44887    -3     7    -9   0.35989   0.06846   0.01223  18.66553   0.04597  92.52605        3109.00       10329.75     1.67083     1.87956    19.48520     0.17843     0.00000   920.14203   920.14203
    25      822.87921       31.35985    -9     5    -7   0.17750  -0.15773   0.00795  18.39889   0.04356 101.33227         747.00        2410.75     1.13830     1.83302   176.25276     0.10006     0.00000   301.02417   301.02417
    27      261.68082       78.66345    -5     7    -9  -0.05619  -0.01924   0.00224  18.85091   0.04354  98.10507        3571.00        8876.75     1.36873     1.70870   169.69051     0.16636     0.00000    27.93338    27.93338
    35      698.73364      226.37787    -9     7    -7   0.06920  -0.14476   0.00558  21.75053   0.04057  89.25087           0.00           0.00     0.00000     0.00000     0.00000     0.00000     0.00000     0.00000     0.00000
    28      454.66608       47.76903    -7     7    -9   0.00638   0.02793   0.00091  19.89082   0.04053 100.53965        3405.00       10198.75     1.50670     1.88045    53.60356     0.20023     0.00000   823.12469   823.12469
    32      971.50934       85.54803   -11     5    -7  -0.28511  -0.33897   0.01428  21.19132   0.03885  97.71111         604.00        2456.75     1.49029     1.64485    22.46617     0.11140     0.00000   971.97650   971.97650
latticeparameters=   0.54328   0.54480   0.54093  89.94819  90.19204  90.25642
dpsx, dpsy: 179.00000 168.38699
dd, xcent, ycent:      150.57201      540.60303      212.87601
pitch,yaw,roll:  -0.22645   0.61642   0.00000
dev1, dev2, pixdev:   0.01223   0.01207   0.24858
deviatoric strain in crystal reference u1 u2 u3 (*10^3)
   0.51452  -2.24509  -1.66945
  -2.24509   3.30975   0.44292
  -1.66945   0.44292  -3.81139
deviatoric strain in sample reference X Y Z (*10^3)
  -0.23173  -0.90173   0.51844
  -0.90173   4.56609   0.16027
   0.51844   0.16027  -4.32148
deviatoric principal strains (*10^3):   4.73044  -0.32304  -4.39452
deviatoric strain principal axes in sample reference:
  -0.17806   0.98399   0.00722
   0.97538   0.17552   0.13350
  -0.13010  -0.03082   0.99102
deviatoric stress in crystal reference u1 u2 u3 (MPa)
       53.14990     -357.01437     -265.47592
     -357.01437      337.42517       70.43382
     -265.47592       70.43382     -386.79471
deviatoric stress in sample reference X Y Z (MPa)
      -35.32520     -202.78581      -24.19850
     -202.78581      560.77441       20.20619
      -24.19850       20.20619     -521.66888
deviatoric principal stresses (MPa):      623.82855      -97.07560     -522.97260
deviatoric stress principal axes in sample reference:
       -0.29474        0.95530        0.02308
       -0.95450       -0.29547        0.04034
        0.04535       -0.01014        0.99892
total strain in sample reference X Y Z (*10^3)
   1.54555  -0.90173   0.51844
  -0.90173   6.34338   0.16027
   0.51844   0.16027  -2.54419
total principal strains (*10^3):   6.50772   1.45425  -2.61723
total strain principal axes in sample reference:
  -0.17806   0.98399   0.00722
   0.97538   0.17552   0.13350
  -0.13010  -0.03082   0.99102
total stress in crystal reference u1 u2 u3 (MPa)
      574.81879     -357.01437     -265.47592
     -357.01437      859.09406       70.43382
     -265.47592       70.43382      134.87415
total stress in sample reference X Y Z (MPa)
      486.34366     -202.78581      -24.19850
     -202.78581     1082.44324       20.20619
      -24.19850       20.20619        0.00000
total principal stresses (MPa):     1145.49756      424.59323       -1.30374
total stress principal axes in sample reference:
       -0.29474        0.95530        0.02308
       -0.95450       -0.29547        0.04034
        0.04535       -0.01014        0.99892
dilatational strain (*10^-3):        1.77729
hydrostatic stress (MPa):      522.92896
Von Mises stress (MPa):     1004.05280
equivalent strain (*10^-3):        5.27846
equivalent stress (MPa):     1004.05280
maximum resolved shear stress:       21.16514
coordinates of a, b, c in X, Y, Z
   0.44449  -0.20240   0.23858
   0.19247   0.50582   0.06496
  -0.24576   0.03226   0.48111
coordinates of a*, b*, c* in X, Y, Z
   1.50612  -0.67775   0.81481
   0.65594   1.70105   0.22103
  -0.83544   0.10640   1.64676
