\\vmware-host\Shared Folders\Desktop\SiHyperlaueFinal_shielded_results\results_00014.STR
Number of grains:       1
Grain no:       1   Grainlist file index:       1    Number of peaks:      33
no   x(exp)  y(exp)  h  k  l xdev  ydev  angdev  energy  dspace  twotheta  intens   integr  xwidth   ywidth  tilt  rfactor   pearson  xcentroid  ycentroid
     2      392.61844      871.97913    -2     4    -2  -0.32876  -0.10351   0.01904  12.44817   0.11105  53.29172       74522.00      261799.89     1.81779     2.06970     0.00000     0.21672     0.00000   746.60260   746.60260
     4      746.28162      951.30359    -3     3    -1  -0.32450   0.52877   0.02110  11.59407   0.12490  50.69547      108103.00      349934.91     1.77776     1.87255     0.61599     0.23286     0.00000   546.36914   546.36914
    13      991.65735      299.62033    -4     2    -2   0.11876  -0.02247   0.00457   8.25884   0.11084  85.25634       59877.00      104170.89     1.23728     1.56432   179.01717     0.23232     0.00000   282.87207   282.87207
     3      546.01563      225.15228    -3     3    -3   0.13039   0.20090   0.00897   8.45298   0.10446  89.18902       51171.00       75889.89     1.23238     1.23530    83.42960     0.17969     0.00000   991.98438   991.98438
     6     1026.41101      909.55341    -5     3    -1  -0.27838   0.26545   0.01398  14.49393   0.09197  55.43141       49348.00      133292.89     1.62982     1.92628   101.59897     0.25286     0.00000   925.32941   925.32941
     7      924.96289      683.08191    -6     4    -2   0.09989   0.00907   0.00464  16.08341   0.07268  64.05967        2485.00        4461.89     1.14945     1.45941     1.62872     0.10013     0.00000    62.03248    62.03248
    29       61.81081      407.68958    -1     3    -3   0.23867   0.29055   0.01275   7.85997   0.12446  78.64955        4803.00       13212.89     1.44706     1.78332    49.17912     0.22731     0.00000   823.15289   823.15289
     5      426.60638      666.13715    -3     5    -3   0.46041  -0.13513   0.02541  14.36018   0.08292  62.75064       54999.00      143413.89     1.64920     1.87054   106.52659     0.19520     0.00000  1026.73193  1026.73193
    15      648.66693      500.26324    -6     6    -4   0.14832   0.00765   0.00772  18.19191   0.05795  72.04283       17547.00       36564.89     1.43151     1.55914    64.53251     0.22722     0.00000   859.19720   859.19720
    10      668.66669      570.52881    -5     5    -3   0.08950  -0.03437   0.00486  15.64227   0.07079  68.09037       71222.00      103449.89     1.08390     1.48325   179.88857     0.19313     0.00000   669.00146   669.00146
     8      868.05920      257.35358    -5     3    -3   0.10986   0.18273   0.00719  10.82888   0.08280  87.48462       57034.00      252306.89     1.89601     2.68547   175.09360     0.30584     0.00000   426.80560   426.80560
    12      331.58411      270.35992    -4     6    -6  -0.49771  -0.02718   0.02250  15.68278   0.05785  86.21086       37270.00       79784.89     1.29736     1.74507   178.28397     0.24786     0.00000   331.84155   331.84155
     9      282.60669      288.46725    -3     5    -5  -0.42466  -0.02685   0.01885  12.97685   0.07064  85.10089       27405.00       54814.89     1.08910     1.84545   179.96030     0.19978     0.00000   648.99939   648.99939
    19      258.60760      619.59393    -3     7    -5  -0.05658  -0.38554   0.01068  19.09150   0.05964  65.98080       28162.00       55276.89     1.24501     1.69111     7.42087     0.24548     0.00000   129.68965   129.68965
    17      858.85126      567.55194    -7     5    -3   0.16950  -0.27592   0.01127  18.24987   0.05968  69.38974        9049.00       23216.89     1.08614     1.94620     0.02077     0.30306     0.00000   464.01743   464.01743
    32      474.98312      454.84698    -6     8    -6   0.04435   0.06210   0.00300  21.96910   0.04659  74.55519        3075.00        6641.89     1.08499     1.51875     0.41246     0.16446     0.00000   454.99368   454.99368
    20      463.66898      498.19232    -5     7    -5   0.34325  -0.14422   0.01841  19.31563   0.05462  71.98116       16369.00       33659.89     1.17099     1.74909   177.57510     0.22612     0.00000   439.08023   439.08023
    22      721.83081      228.64755    -8     6    -6   0.06738   0.04298   0.00331  18.98070   0.04655  89.11328       28185.00       42710.89     1.18491     1.29657   179.14371     0.20800     0.00000   753.86353   753.86353
    14      129.37849       39.61792    -3     5    -7  -0.21257   0.22691   0.01008  13.62034   0.05948  99.85720       15300.00       27089.89     1.23735     1.45587     5.53530     0.19141     0.00000   258.90982   258.90982
    18      438.69952       20.98525    -6     6    -8   0.42725   0.29925   0.01948  17.13983   0.04649 102.15968       11261.00       21673.89     1.22048     1.48656   177.81966     0.21970     0.00000   722.17126   722.17126
    31     1012.68781      601.60712    -9     5    -3   0.01021  -0.15373   0.00391  21.60275   0.05069  68.95743         582.00        2317.89     1.27176     1.90472     6.27432     0.10391     0.00000   699.01190   699.01190
    16      753.58356      232.70276    -7     5    -5  -0.32578   0.21785   0.01589  16.22837   0.05456  88.87301        1103.00        3478.89     1.52509     1.72304   175.56519     0.11307     0.00000   475.04572   475.04572
    21      145.60529      355.19611    -3     7    -7  -0.04990  -0.03545   0.00235  18.13814   0.05245  81.32981        1467.00        3728.89     1.32587     1.49675   169.64305     0.11106     0.00000  1013.01617  1013.01617
    23      364.74771      259.68784    -5     7    -7  -0.04434  -0.07727   0.00321  18.42433   0.04893  86.88816        8377.00       21895.89     1.26287     1.89915   179.50461     0.18226     0.00000   145.91682   145.91682
    30      784.10803       52.59725   -10     6    -8  -0.02080  -0.11814   0.00373  21.07650   0.03835 100.14990        6252.00       10829.89     1.11943     1.34863   177.15160     0.16155     0.00000   262.01996   262.01996
    34      300.68692       93.07041    -6     8   -10  -0.07801  -0.05759   0.00357  21.53374   0.03834  97.34150         522.00        2764.24     1.23885     2.33164     5.66252     0.52932     0.00000   615.84363   615.84363
    25      919.90637      273.36993    -9     5    -5   0.11708  -0.12402   0.00600  19.04935   0.04744  86.62974        1035.00        4122.89     1.49091     1.81468   168.29347     0.14585     0.00000   784.08417   784.08417
    26       27.56361      162.40640    -3     7    -9   0.32641   0.05294   0.01105  18.66371   0.04597  92.52921         836.00        2733.89     1.13483     1.87930   177.34009     0.10572     0.00000   301.00186   301.00186
    24      822.85150       31.43102    -9     5    -7   0.19330  -0.16206   0.00850  18.39882   0.04356 101.32831       11695.00       19147.89     1.20824     1.28853     1.92560     0.18609     0.00000   365.10202   365.10202
    27      261.67932       78.66127    -5     7    -9  -0.07460  -0.04648   0.00319  18.84948   0.04354  98.10679        4590.00       13084.89     1.67201     1.71332    53.99339     0.20023     0.00000   920.14331   920.14331
    36      698.74200      226.33984    -9     7    -7   0.04398  -0.07290   0.00306  21.74994   0.04058  89.24869           0.00           0.00     0.00000     0.00000     0.00000     0.00000     0.00000     0.00000     0.00000
    28      454.66638       47.77737    -7     7    -9   0.00008   0.02023   0.00063  19.88976   0.04053 100.53960        4531.00       11651.89     1.41563     1.76429   169.59879     0.18120     0.00000    27.91512    27.91512
    33      971.55377       85.58204   -11     5    -7  -0.35913  -0.28307   0.01526  21.19161   0.03885  97.70602         712.00        2733.89     1.38588     1.54925    19.08875     0.12425     0.00000   971.97083   971.97083
latticeparameters=   0.54325   0.54484   0.54093  89.94838  90.19324  90.25751
dpsx, dpsy: 179.00000 168.38699
dd, xcent, ycent:      150.57201      540.60303      212.87601
pitch,yaw,roll:  -0.22645   0.61642   0.00000
dev1, dev2, pixdev:   0.01232   0.01207   0.25575
deviatoric strain in crystal reference u1 u2 u3 (*10^3)
   0.45764  -2.25484  -1.67991
  -2.25484   3.37743   0.44117
  -1.67991   0.44117  -3.82195
deviatoric strain in sample reference X Y Z (*10^3)
  -0.26087  -0.86881   0.49645
  -0.86881   4.62343   0.17531
   0.49645   0.17531  -4.34944
deviatoric principal strains (*10^3):   4.77423  -0.34358  -4.41753
deviatoric strain principal axes in sample reference:
  -0.16910   0.98555   0.00974
   0.97764   0.16647   0.12845
  -0.12497  -0.03124   0.99167
deviatoric stress in crystal reference u1 u2 u3 (MPa)
       47.38059     -358.56454     -267.13940
     -358.56454      344.32358       70.15505
     -267.13940       70.15505     -387.85385
deviatoric stress in sample reference X Y Z (MPa)
      -38.16052     -199.85806      -26.93129
     -199.85806      567.04919       21.66007
      -26.93129       21.66007     -525.03833
deviatoric principal stresses (MPa):      627.79602      -97.31061     -526.63507
deviatoric stress principal axes in sample reference:
       -0.28827        0.95723        0.02472
       -0.95620       -0.28914        0.04556
        0.05076       -0.01050        0.99866
total strain in sample reference X Y Z (*10^3)
   1.52790  -0.86881   0.49645
  -0.86881   6.41220   0.17531
   0.49645   0.17531  -2.56068
total principal strains (*10^3):   6.56299   1.44518  -2.62876
total strain principal axes in sample reference:
  -0.16910   0.98555   0.00974
   0.97764   0.16647   0.12845
  -0.12497  -0.03124   0.99167
total stress in crystal reference u1 u2 u3 (MPa)
      572.41895     -358.56454     -267.13940
     -358.56454      869.36194       70.15505
     -267.13940       70.15505      137.18449
total stress in sample reference X Y Z (MPa)
      486.87784     -199.85806      -26.93129
     -199.85806     1092.08752       21.66007
      -26.93129       21.66007        0.00000
total principal stresses (MPa):     1152.83423      427.72778       -1.59671
total stress principal axes in sample reference:
       -0.28827        0.95723        0.02472
       -0.95620       -0.28914        0.04556
        0.05076       -0.01050        0.99866
dilatational strain (*10^-3):        1.78877
hydrostatic stress (MPa):      526.32178
Von Mises stress (MPa):     1010.64587
equivalent strain (*10^-3):        5.31826
equivalent stress (MPa):     1010.64587
maximum resolved shear stress:       16.57409
coordinates of a, b, c in X, Y, Z
   0.44443  -0.20245   0.23851
   0.19253   0.50580   0.06498
  -0.24573   0.03226   0.48109
coordinates of a*, b*, c* in X, Y, Z
   1.50608  -0.67795   0.81472
   0.65608   1.70075   0.22106
  -0.83529   0.10641   1.64673
