SiHyperlaueFinal_00095.tif
number of grains found:       1
grain no:       0     grainlist file index:       1
number of indexed reflections:      32
       x(exp)          y(exp)      h     k     l   ang_dev. xdev(pix) ydev(pix) Ener(keV) 2theta(deg)   chi(deg)intensity  integr    xwidth(pix) ywidth(pix)  tilt(deg)    rfact       pearson  xcentr(pix) ycentr(pix)   strfac  theor_integr  fit_intensity    fit_integr    fit_backg    harm   lin_abs
      392.63684      871.97522    -2     4    -2   0.03967   0.32477  -1.73867  12.47251  53.28600   9.14811   87415.0  168937.0     1.15897     1.85872     2.05942     0.18136     0.00000   392.90683   872.32513            1.7         2167.3        76760.8       187365.7           96.3     1       41.52622
      746.36572      951.26453    -3     3    -1   0.05374  -0.69608  -2.00774  11.61888  50.72034 -13.73285   30702.0  101491.0     1.72054     2.05394   178.57249     0.20869     0.00000   746.67218   951.63293            1.3         1392.1        30101.6       120533.4           96.3     1       51.31354
      991.68335      299.62054    -4     2    -2   0.00727  -0.11146   0.20206   8.25874  85.25477 -27.26531   25356.0   39185.0     1.23511     1.24024   162.78717     0.18250     0.00000   992.03180   299.99295            1.7         1048.5        22008.4        38199.9           96.3     2      140.78815
      546.06464      225.14693    -3     3    -3   0.02128   0.28843   0.50265   8.44858  89.20243  -0.36529   41389.0  143350.0     1.82209     1.87573    22.29368     0.22607     0.00000   546.37561   225.46471            1.2         2623.6        43647.1       169028.3           96.3     4      131.72787
     1026.45129      909.48682    -5     3    -1   0.07033  -1.41055  -2.07794  14.51848  55.44855 -29.42501   34206.0   86885.0     1.59142     1.90887    83.11493     0.20709     0.00000  1026.77515   909.82813            1.0          745.2        28075.0        96637.5           96.3     1       26.36481
      925.00568      683.00818    -6     4    -2   0.03191  -0.57549  -0.81455  16.10811  64.06310 -23.98048   35447.0   92873.0     1.59025     1.96296   115.02052     0.24192     0.00000   925.34467   683.36584            1.2          663.3        29415.6       104044.4           96.3     1       19.32637
      426.64246      666.11365    -3     5    -3   0.05365   0.93808  -0.66785  14.38025  62.74605   7.10128   31595.0  152037.0     1.90650     2.87739   175.04915     0.31005     0.00000   426.87286   666.53064            0.9          465.6        29305.9       182160.3           96.3     1       27.13023
      648.66681      500.20163    -6     6    -4   0.01155   0.22138   0.03012  18.21056  72.04645  -7.22941   19477.0   41714.0     1.08825     1.88070     0.00000     0.18796     0.00000   649.00696   500.75510            0.8          282.7        19384.3        44953.5           96.3     1       13.41382
      668.66699      570.49316    -5     5    -3   0.00925   0.10599  -0.26064  15.66395  68.09009  -8.56360   46004.0   69288.0     1.08461     1.54727   179.97681     0.19172     0.00000   669.00415   570.82068            0.8          273.4        39845.9        75768.4           96.3     1       21.00952
      868.12671      257.27554    -5     3    -3   0.01677  -0.01103   0.54875  10.82617  87.50048 -20.50106   13559.0   39779.0     1.68135     1.99618   130.74805     0.19816     0.00000   868.35278   257.70267            0.9          258.7        12402.3        47165.5           96.3     1       63.33227
      331.59537      270.35986    -4     6    -6   0.01266  -0.23498   0.22411  15.67303  86.20900  13.36387   25747.0   54103.0     1.26766     1.74357   178.83405     0.23429     0.00000   331.86304   270.77432            0.8          212.8        22270.8        55775.1           96.3     1       20.97317
      282.61386      288.46719    -3     5    -5   0.00951  -0.15460   0.21679  12.96812  85.09886  16.34161   30767.0   52996.0     1.21914     1.56366   179.51672     0.21343     0.00000   282.88934   288.78915            0.8          186.5        26182.8        56555.8           96.3     1       36.96044
      258.61829      619.58557    -3     7    -5   0.03428   0.61355  -0.69164  19.10745  65.96068  17.58744   12093.0   21317.0     1.20954     1.46533     4.12881     0.18098     0.00000   258.92743   619.97986            0.6          184.2        10234.6        20553.7           96.3     1       11.63429
      858.89728      567.50659    -7     5    -3   0.01934  -0.26138  -0.57855  18.27618  69.37641 -20.18868   12352.0   28486.0     1.48991     1.66524    71.88378     0.21993     0.00000   859.21063   567.93573            0.6          165.8        10398.8        29233.9           96.3     1       13.27149
      475.04407      454.83002    -6     8    -6   0.01791   0.33063   0.16185  21.98099  74.55998   4.10850     885.0    3055.0     1.52922     1.80757   173.42506     0.10330     0.00000   475.05978   455.08215            0.6          138.5          699.0         2189.2           96.3     1        7.71550
      463.67010      498.14206    -5     7    -5   0.03800   0.72244  -0.10568  19.33158  71.97594   4.81819    7597.0   18406.0     1.08897     1.93968     0.02930     0.30215     0.00000   464.00192   498.36716            0.6          118.9         7416.9        17751.5           96.3     1       11.24049
      721.85895      228.63593    -8     6    -6   0.01311   0.12792   0.36799  18.97583  89.11674 -11.68349    8505.0   17065.0     1.23261     1.54022   177.46291     0.20780     0.00000   722.14966   229.10269            0.6          107.6         7155.1        15391.7           96.3     1       11.87441
      129.38313       39.62326    -3     5    -7   0.02613  -0.73151   0.19243  13.59061  99.87094  25.19391   15667.0   30736.0     1.23286     1.68657     6.59035     0.21897     0.00000   129.72948    39.93881            0.6          107.3        13298.7        31332.2           96.3     1       32.12447
      438.70001       20.95934    -6     6    -8   0.02251   0.49488   0.34257  17.11046 102.17884   6.75196   12311.0   24788.0     1.17301     1.71566   177.92130     0.21208     0.00000   439.07834    21.31696            0.6          103.6        10585.5        24138.3           96.3     1       16.14291
     1012.69861      601.56158    -9     5    -3   0.03308  -0.71654  -0.67954  21.62860  68.95202 -28.53635    1174.0    3276.0     1.34007     1.57544   171.33517     0.10663     0.00000  1013.00415   602.04041            0.5          103.4          896.6         2144.8           96.3     1        8.08678
      753.59668      232.68994    -7     5    -5   0.02105  -0.27734   0.54236  16.22300  88.88797 -13.65915   20153.0   29597.0     1.15778     1.26259   178.80219     0.18844     0.00000   753.88367   233.10104            0.6           86.7        17593.5        29141.0           96.3     1       18.92074
      145.61569      355.20776    -3     7    -7   0.01030   0.20247   0.19270  18.12358  81.32688  24.16665    6703.0   17248.0     1.23672     1.89385   179.16747     0.17315     0.00000   145.94286   355.83142            0.5           85.7         6441.7        17095.6           96.3     1       13.60570
      364.75659      259.68622    -5     7    -7   0.01151   0.21596   0.18200  18.41406  86.88333  11.30356    8932.0   15031.0     1.20057     1.31411     2.21888     0.17671     0.00000   365.10666   260.11456            0.5           64.0         7647.0        13670.1           96.3     1       12.97907
      784.14398       52.52050   -10     6    -8   0.00812   0.17560   0.13416  21.05408 100.14725 -15.39775     814.0    3692.0     1.66132     1.87870    79.73594     0.13517     0.00000   784.06732    53.09144            0.5           61.2          636.0         2249.1           96.3     1        8.74753
      300.68286       93.00999    -6     8   -10   0.00480  -0.08242   0.10996  21.50101  97.34188  15.36369     799.0    2446.0     1.13265     1.80668   176.80370     0.09759     0.00000   301.05136    93.10604            0.5           61.1          617.1         1431.0           96.3     1        8.22738
      919.94867      273.26505    -9     5    -5   0.00757  -0.03845   0.24761  19.04825  86.62844 -23.42262    3152.0   10520.0     1.68237     1.87320    18.65039     0.18059     0.00000   920.14362   274.00238            0.4           58.4         2762.6         9864.9           96.3     1       11.74146
       27.57606      162.42845    -3     7    -9   0.00935  -0.17470   0.25507  18.62876  92.53037  30.33593    3639.0    9044.0     1.39299     1.71232   168.71239     0.16574     0.00000    27.91559   162.95036            0.4           50.8         2937.4         7938.8           96.3     1       12.54095
      822.87921       31.37055    -9     5    -7   0.01657   0.43819   0.04027  18.37796 101.32274 -17.70463    3507.0   10317.0     1.56124     1.80666    79.93016     0.19786     0.00000   823.13928    32.04230            0.4           42.9         2760.3         8821.9           96.3     1       13.05478
      261.68094       78.65696    -5     7    -9   0.00685  -0.17410   0.02984  18.81850  98.10447  17.71072    4925.0    8671.0     1.12146     1.33744   178.87187     0.14785     0.00000   261.99213    79.09969            0.4           42.7         4209.3         7153.6           96.3     1       12.17041
      698.73572      226.36440    -9     7    -7   0.00997   0.15777   0.21608  21.74577  89.24238 -10.22639     468.0    2160.0     1.32894     2.03578     8.99467     0.10253     0.00000   699.00482   227.02855            0.4           36.7          320.0          980.8           96.3     1        7.96062
      454.66510       47.76550    -7     7    -9   0.00563   0.10732   0.11185  19.86100 100.54161   5.70470    2526.0    5559.0     1.08668     1.53537     0.86955     0.14748     0.00000   454.97983    48.16559            0.4           35.2         2078.3         3929.2           96.3     1       10.38010
      971.57214       85.57616   -11     5    -7   0.00526  -0.14221  -0.05451  21.17423  97.68899 -26.07452     618.0    2513.0     1.33738     1.74405    13.79225     0.11688     0.00000   972.00781    86.07744            0.3           31.5          425.7         1125.2           96.3     1        8.60330
 dev1, dev2, pixdev=    0.0324500    0.0260600    0.0205900
matrix X  Y  Z -> h  k  l
   0.44379  -0.20021   0.24046
   0.19305   0.50360   0.06302
  -0.24625   0.03398   0.48276
matrix h  k  l -> X  Y  Z
   1.50513   0.65473  -0.83516
  -0.67901   1.70799   0.11526
   0.81553   0.21373   1.63731
Number of missing reflections:      11
x(exp)   y(exp)   h  k  l   energy(keV)   theta(deg)    strfac    theor_integr
      546.35309      225.64958    -4     4    -4  11.26802  89.16981        1.26000      452.52301
      546.35309      225.64958    -5     5    -5  14.08503  89.16981        0.67400      129.38400
      991.57190      299.82260    -8     4    -4  16.51935  85.24280        0.79700      189.47301
      546.35309      225.64958    -7     7    -7  19.71904  89.16981        0.41100       48.06600
      200.37080      748.60681    -2     6    -4  17.06915  60.06937        1.15300      765.53497
       62.28635      408.23694    -1     3    -3   7.85410  78.63423        1.28600      552.76898
        1.70388       14.89939    -2     4    -6  11.10770 100.55573        1.15300      363.42401
        7.11916      891.67761    -1     7    -5  21.00857  56.15003        0.67400      304.37100
      204.77007      323.66138    -4     8    -8  20.66543  83.05025        0.58900      107.12700
      634.54858      454.14008    -7     7    -5  20.85715  74.75622        0.46800       79.91400
      616.95465       49.10376    -9     7    -9  21.55711 100.58141        0.32400       28.72500
Rfactor:      0.55035001
Rotangle(deg):       35.22520
Rodrigues vector:       -0.01471        0.24666        0.19930       35.22520
Quaternion:        0.95312       -0.01403        0.23510        0.18996
Euler angles:        4.02663       24.39387       23.50885
orsnr, orsirxy, orsirxz, orsiryz:  27.24455 -24.28176 -27.02517   4.02663
 Rotation matrix, unit cell to sample:
   0.81728   0.35552  -0.45349
  -0.36871   0.92744   0.06258
   0.44283   0.11606   0.88906
 Rotation matrix, sample to unit cell:
   0.81728  -0.36871   0.44283
   0.35552   0.92744   0.11606
  -0.45349   0.06258   0.88906
Sum of integrated intensities:  1135468.75000
Average integrated intensity per peak:    37848.95703
scale:   0.00972000
depth:    -0.839840
Unindexed reflections:       0
Xstage position:      6000.00
Ystage position:      9760.00
X map position:      95
Y map position:       1
Izero:       2659.0000
Channel A:      0.00000000
Channel B:      0.00000000
Channel C:      0.00000000
Channel D:      0.00000000
Channel E:      0.00000000
Exposure:      2.50000
Average intensity of the image :       105.50562
Average background of the image:       103.75835
