\\vmware-host\Shared Folders\Desktop\SiHyperlaueFinal_shielded_results\results_00007.STR
Number of grains:       1
Grain no:       1   Grainlist file index:       1    Number of peaks:      33
no   x(exp)  y(exp)  h  k  l xdev  ydev  angdev  energy  dspace  twotheta  intens   integr  xwidth   ywidth  tilt  rfactor   pearson  xcentroid  ycentroid
     3      392.61594      871.98065    -2     4    -2  -0.33107  -0.11202   0.01920  12.44801   0.11105  53.29203       51436.00       75850.74     1.22766     1.22964   127.72076     0.17995     0.00000   991.98315   991.98315
     4      746.25897      951.28149    -3     3    -1  -0.30737   0.55129   0.02050  11.59404   0.12490  50.69541      109079.00      354879.75     1.77499     1.87396     1.43056     0.23346     0.00000   546.36707   546.36707
    13      991.65710      299.62271    -4     2    -2   0.10729  -0.01321   0.00410   8.25891   0.11084  85.25564       60362.00      104806.74     1.24063     1.55803   179.16702     0.23322     0.00000   282.85980   282.85980
     2      546.01239      225.15778    -3     3    -3   0.13070   0.19960   0.00895   8.45299   0.10446  89.18874       73543.00      259670.73     1.83288     2.05282   168.35829     0.21729     0.00000   746.59528   746.59528
     6     1026.40381      909.55811    -5     3    -1  -0.28195   0.26606   0.01414  14.49402   0.09197  55.43106       49535.00      134440.73     1.64298     1.91572   101.72505     0.25160     0.00000   925.32916   925.32916
     7      924.96161      683.08929    -6     4    -2   0.09248   0.00743   0.00430  16.08349   0.07268  64.05931        2536.00        4361.74     1.13982     1.43274     0.79794     0.09377     0.00000    62.05180    62.05180
    30       61.80248      407.68558    -1     3    -3   0.24211   0.28800   0.01280   7.85989   0.12446  78.64993        6434.00       11243.74     1.11794     1.34388   176.92580     0.16723     0.00000   262.01184   262.01184
     5      426.60358      666.13971    -3     5    -3   0.45911  -0.14163   0.02536  14.36005   0.08292  62.75086       54757.00      144169.73     1.65112     1.88200   106.53237     0.19461     0.00000  1026.72803  1026.72803
    15      648.66711      500.26746    -6     6    -4   0.14371   0.00592   0.00748  18.19191   0.05795  72.04267       18135.00       37333.74     1.43152     1.55178    44.88956     0.22598     0.00000   859.19305   859.19305
    10      668.66675      570.52655    -5     5    -3   0.08477  -0.03000   0.00458  15.64226   0.07079  68.09024       71814.00      104762.74     1.08393     1.49214   179.97028     0.19273     0.00000   668.99744   668.99744
     8      868.05469      257.36533    -5     3    -3   0.10611   0.18117   0.00706  10.82896   0.08280  87.48399       57425.00      252695.73     1.89432     2.67566   175.38593     0.30483     0.00000   426.80228   426.80228
    11      331.58389      270.36218    -4     6    -6  -0.49982  -0.03014   0.02260  15.68273   0.05785  86.21091       48516.00      125274.74     1.64437     1.89094   104.06924     0.23837     0.00000   868.38995   868.38995
     9      282.60526      288.46967    -3     5    -5  -0.42575  -0.03109   0.01891  12.97679   0.07064  85.10100       27966.00       55607.74     1.08989     1.84260     0.00349     0.19855     0.00000   648.99988   648.99988
    19      258.60574      619.59082    -3     7    -5  -0.05951  -0.38870   0.01081  19.09128   0.05964  65.98115       28666.00       56431.74     1.24367     1.69110     7.49077     0.24906     0.00000   129.68753   129.68753
    17      858.84113      567.54968    -7     5    -3   0.17217  -0.26786   0.01121  18.24995   0.05968  69.38937        9034.00       23242.74     1.08542     1.95064     0.02745     0.30201     0.00000   464.02090   464.02090
    32      474.96411      454.87936    -6     8    -6   0.05997   0.02923   0.00325  21.96902   0.04659  74.55522        3149.00        6904.74     1.07896     1.51733   178.27167     0.17333     0.00000   454.99429   454.99429
    20      463.66919      498.19379    -5     7    -5   0.33951  -0.14694   0.01824  19.31553   0.05462  71.98123       16474.00       33807.74     1.16979     1.75959   177.57874     0.22195     0.00000   439.08173   439.08173
    22      721.83759      228.64743    -8     6    -6   0.05542   0.05089   0.00297  18.98080   0.04655  89.11278       28891.00       43860.74     1.18464     1.30707   177.30035     0.21015     0.00000   753.85468   753.85468
    14      129.37859       39.61831    -3     5    -7  -0.21281   0.22598   0.01007  13.62030   0.05948  99.85723       15244.00       27332.74     1.24193     1.46428     6.10646     0.19614     0.00000   258.90323   258.90323
    18      438.69901       20.99349    -6     6    -8   0.42678   0.29685   0.01943  17.13987   0.04649 102.15931       11162.00       21466.74     1.21909     1.49319   178.58531     0.21659     0.00000   722.16266   722.16266
    31     1012.69037      601.60968    -9     5    -3  -0.00358  -0.14860   0.00371  21.60290   0.05069  68.95693         595.00        2383.74     1.25061     1.90300     5.81226     0.10944     0.00000   699.01288   699.01288
    16      753.57898      232.70351    -7     5    -5  -0.32695   0.22546   0.01604  16.22846   0.05456  88.87247        1028.00        3442.74     1.61606     1.72604   163.85730     0.11494     0.00000   475.04782   475.04782
    21      145.60451      355.18027    -3     7    -7  -0.05282  -0.02446   0.00233  18.13800   0.05245  81.33010        1521.00        3907.74     1.35409     1.50418   170.19997     0.11106     0.00000  1012.99817  1012.99817
    23      364.74854      259.69098    -5     7    -7  -0.04744  -0.08034   0.00338  18.42429   0.04893  86.88816        8430.00       22483.74     1.26113     1.90060   179.23645     0.18632     0.00000   145.90195   145.90195
    29      784.12469       52.57042   -10     6    -8  -0.04399  -0.07859   0.00301  21.07666   0.03835 100.14914        4918.00       13509.74     1.38187     1.50284     0.00000     0.25263     0.00000   823.14417   823.14417
    33      300.67438       92.98344    -6     8   -10  -0.06631   0.03100   0.00285  21.53372   0.03834  97.34140         721.00        2654.74     1.38764     1.63753    24.56348     0.11749     0.00000   971.99756   971.99756
    25      919.88885      273.35568    -9     5    -5   0.12499  -0.09890   0.00583  19.04950   0.04744  86.62907        1064.00        4476.74     1.51796     1.80212   160.39618     0.16014     0.00000   784.08929   784.08929
    26       27.57550      162.42024    -3     7    -9   0.31235   0.03497   0.01054  18.66361   0.04597  92.52944         925.00        2713.74     1.13297     1.79344   177.20985     0.10347     0.00000   301.00348   301.00348
    24      822.78632       31.50270    -9     5    -7   0.25092  -0.21963   0.01119  18.39896   0.04356 101.32749       11922.00       19465.74     1.21152     1.29123     0.70337     0.18518     0.00000   365.12570   365.12570
    27      261.67947       78.66848    -5     7    -9  -0.07538  -0.05254   0.00329  18.84945   0.04354  98.10672        4652.00       13227.74     1.58922     1.77547    15.92189     0.20104     0.00000   920.15912   920.15912
    36      698.72705      226.38994    -9     7    -7   0.05413  -0.11565   0.00443  21.75004   0.04058  89.24821           0.00           0.00     0.00000     0.00000     0.00000     0.00000     0.00000     0.00000     0.00000
    28      454.66525       47.77927    -7     7    -9  -0.00008   0.02394   0.00075  19.88980   0.04053 100.53925        4749.00       11772.74     1.38522     1.73582   169.93468     0.18262     0.00000    27.92261    27.92261
    34      971.54620       85.62625   -11     5    -7  -0.36358  -0.31138   0.01588  21.19180   0.03885  97.70513         522.00        2764.24     1.23885     2.33164     5.66252     0.52932     0.00000   615.84363   615.84363
latticeparameters=   0.54324   0.54485   0.54093  89.94789  90.19357  90.25703
dpsx, dpsy: 179.00000 168.38699
dd, xcent, ycent:      150.57201      540.60303      212.87601
pitch,yaw,roll:  -0.22645   0.61642   0.00000
dev1, dev2, pixdev:   0.01238   0.01211   0.25696
deviatoric strain in crystal reference u1 u2 u3 (*10^3)
   0.44919  -2.25066  -1.68272
  -2.25066   3.38943   0.44542
  -1.68272   0.44542  -3.82545
deviatoric strain in sample reference X Y Z (*10^3)
  -0.26257  -0.86183   0.49601
  -0.86183   4.63024   0.18387
   0.49601   0.18387  -4.35451
deviatoric principal strains (*10^3):   4.77866  -0.34260  -4.42290
deviatoric strain principal axes in sample reference:
  -0.16747   0.98582   0.01075
   0.97794   0.16474   0.12846
  -0.12486  -0.03203   0.99166
deviatoric stress in crystal reference u1 u2 u3 (MPa)
       46.52450     -357.90063     -267.58655
     -357.90063      345.54721       70.83137
     -267.58655       70.83137     -388.20670
deviatoric stress in sample reference X Y Z (MPa)
      -38.15275     -199.12910      -26.93725
     -199.12910      567.61487       22.87186
      -26.93725       22.87186     -525.59711
deviatoric principal stresses (MPa):      627.97168      -96.88610     -527.22052
deviatoric stress principal axes in sample reference:
       -0.28727        0.95750        0.02569
       -0.95653       -0.28818        0.04473
        0.05023       -0.01173        0.99867
total strain in sample reference X Y Z (*10^3)
   1.52810  -0.86183   0.49601
  -0.86183   6.42091   0.18387
   0.49601   0.18387  -2.56384
total principal strains (*10^3):   6.56933   1.44807  -2.63223
total strain principal axes in sample reference:
  -0.16747   0.98582   0.01075
   0.97794   0.16474   0.12846
  -0.12486  -0.03203   0.99166
total stress in crystal reference u1 u2 u3 (MPa)
      572.12158     -357.90063     -267.58655
     -357.90063      871.14435       70.83137
     -267.58655       70.83137      137.39041
total stress in sample reference X Y Z (MPa)
      487.44437     -199.12910      -26.93725
     -199.12910     1093.21204       22.87186
      -26.93725       22.87186        0.00000
total principal stresses (MPa):     1153.56885      428.71100       -1.62345
total stress principal axes in sample reference:
       -0.28727        0.95750        0.02569
       -0.95653       -0.28818        0.04473
        0.05023       -0.01173        0.99867
dilatational strain (*10^-3):        1.79067
hydrostatic stress (MPa):      526.88544
Von Mises stress (MPa):     1011.20618
equivalent strain (*10^-3):        5.32384
equivalent stress (MPa):     1011.20618
maximum resolved shear stress:       16.18848
coordinates of a, b, c in X, Y, Z
   0.44442  -0.20245   0.23851
   0.19254   0.50580   0.06498
  -0.24572   0.03226   0.48109
coordinates of a*, b*, c* in X, Y, Z
   1.50607  -0.67799   0.81472
   0.65609   1.70070   0.22106
  -0.83528   0.10640   1.64673
