SiHyperlaueFinal_00113.tif
number of grains found:       1
grain no:       0     grainlist file index:       1
number of indexed reflections:      32
       x(exp)          y(exp)      h     k     l   ang_dev. xdev(pix) ydev(pix) Ener(keV) 2theta(deg)   chi(deg)intensity  integr    xwidth(pix) ywidth(pix)  tilt(deg)    rfact       pearson  xcentr(pix) ycentr(pix)   strfac  theor_integr  fit_intensity    fit_integr    fit_backg    harm   lin_abs
      392.64066      872.00391    -2     4    -2   0.04009   0.32779  -1.75753  12.47277  53.28479   9.14785   79352.0  153406.6     1.14973     1.86854     1.73032     0.17468     0.00000   392.91788   872.35022            1.7         2167.3        70731.6       172176.8           96.3     1       41.52359
      746.39001      951.28790    -3     3    -1   0.05472  -0.71322  -2.03149  11.61903  50.71963 -13.73437   29049.0   91618.6     1.68365     2.02943   178.43939     0.21394     0.00000   746.68152   951.64783            1.3         1392.1        27986.4       108352.5           96.3     1       51.31157
      991.68579      299.61737    -4     2    -2   0.00718  -0.11042   0.19891   8.25872  85.25496 -27.26543   24550.0   38314.6     1.24140     1.24445   163.90735     0.18482     0.00000   992.03131   299.98434            1.7         1048.5        21277.4        37245.3           96.3     2      140.78896
      546.07220      225.15401    -3     3    -3   0.02102   0.28263   0.49915   8.44861  89.20197  -0.36579   39300.0  138252.6     1.82757     1.87712    20.80266     0.22490     0.00000   546.38013   225.46324            1.2         2623.6        41943.5       163040.1           96.3     4      131.72627
     1026.45789      909.49200    -5     3    -1   0.07037  -1.40848  -2.09095  14.51851  55.44844 -29.42534   32399.0   81217.6     1.59181     1.88582   127.09445     0.18741     0.00000  1026.77661   909.83307            1.0          745.2        26467.1        90024.8           96.3     1       26.36468
      925.02124      683.01135    -6     4    -2   0.03235  -0.58451  -0.82259  16.10811  64.06310 -23.98134   33599.0   89197.6     1.60956     1.96458    77.91959     0.26333     0.00000   925.35095   683.36694            1.2          663.3        27959.0       100175.9           96.3     1       19.32637
      426.65067      666.12347    -3     5    -3   0.05354   0.93556  -0.67027  14.38036  62.74552   7.10075   30141.0  147165.6     1.90767     2.92526   175.63779     0.30963     0.00000   426.88760   666.54333            0.9          465.6        28043.6       177323.5           96.3     1       27.12966
      648.66760      500.20837    -6     6    -4   0.01173   0.22489   0.02491  18.21065  72.04605  -7.22946   19029.0   40574.6     1.09055     1.87680     0.00000     0.18940     0.00000   649.01520   500.77206            0.8          282.7        18864.3        43749.3           96.3     1       13.41363
      668.66675      570.49817    -5     5    -3   0.00951   0.11107  -0.26447  15.66401  68.08981  -8.56359   45307.0   67576.6     1.08444     1.53212     0.03846     0.19160     0.00000   668.99994   570.82202            0.8          273.4        39255.6        73903.8           96.3     1       21.00929
      868.12317      257.28076    -5     3    -3   0.01649  -0.00507   0.53991  10.82620  87.50016 -20.50086   13237.0   38776.6     1.80929     1.86071   106.88884     0.20523     0.00000   868.35199   257.69678            0.9          258.7        12078.9        46076.3           96.3     1       63.33171
      331.59824      270.37628    -4     6    -6   0.01252  -0.23481   0.21607  15.67318  86.20796  13.36368   25959.0   53626.6     1.26063     1.72397   178.56662     0.23561     0.00000   331.85690   270.78296            0.8          212.8        22312.1        54944.5           96.3     1       20.97257
      282.61844      288.48862    -3     5    -5   0.00929  -0.15565   0.20483  12.96828  85.09752  16.34132   31112.0   52128.6     1.20803     1.52038   179.45468     0.21235     0.00000   282.89926   288.79642            0.8          186.5        26501.6        55152.6           96.3     1       36.95906
      258.62518      619.58887    -3     7    -5   0.03416   0.61291  -0.68390  19.10750  65.96046  17.58703   12175.0   21183.6     1.18990     1.45094     3.36482     0.18121     0.00000   258.93033   619.98956            0.6          184.2        10341.4        20230.4           96.3     1       11.63419
      858.89453      567.49731    -7     5    -3   0.01899  -0.25329  -0.57256  18.27607  69.37688 -20.18852   11881.0   27674.6     1.49433     1.67364    41.03176     0.22235     0.00000   859.19751   567.92297            0.6          165.8        10026.2        28412.5           96.3     1       13.27172
      475.04666      454.82892    -6     8    -6   0.01805   0.33215   0.16838  21.98097  74.56004   4.10833     873.0    3009.6     1.48732     1.79733   176.60294     0.10321     0.00000   475.07751   455.05405            0.6          138.5          691.8         2095.4           96.3     1        7.71552
      463.67050      498.16095    -5     7    -5   0.03823   0.72651  -0.11876  19.33183  71.97483   4.81815    7355.0   18069.6     1.09042     1.94592   179.93941     0.29812     0.00000   464.00757   498.36746            0.6          118.9         7315.8        17589.3           96.3     1       11.24004
      721.87311      228.63654    -8     6    -6   0.01285   0.11550   0.36702  18.97583  89.11671 -11.68438    8279.0   17031.6     1.23400     1.57211   178.03123     0.20864     0.00000   722.15967   229.11238            0.6          107.6         6968.8        15318.6           96.3     1       11.87440
      129.38148       39.62771    -3     5    -7   0.02607  -0.72769   0.20154  13.59063  99.87068  25.19399   15457.0   30170.6     1.22225     1.68804     6.31735     0.21758     0.00000   129.73793    39.92931            0.6          107.3        13146.2        30733.1           96.3     1       32.12430
      438.70212       20.96322    -6     6    -8   0.02246   0.49239   0.34497  17.11049 102.17860   6.75182   12145.0   24535.6     1.17420     1.72049   177.61057     0.21345     0.00000   439.08032    21.32847            0.6          103.6        10450.1        23921.0           96.3     1       16.14283
     1012.72192      601.55206    -9     5    -3   0.03366  -0.73334  -0.67678  21.62841  68.95272 -28.53752    1126.0    3107.6     1.33422     1.60410   170.54790     0.10339     0.00000  1013.01050   602.04248            0.5          103.4          854.1         2071.3           96.3     1        8.08700
      753.59760      232.69044    -7     5    -5   0.02099  -0.27643   0.54080  16.22300  88.88794 -13.65921   20380.0   29637.6     1.15710     1.26050   179.27068     0.18509     0.00000   753.89111   233.10616            0.6           86.7        17805.0        29425.2           96.3     1       18.92072
      145.61455      355.21777    -3     7    -7   0.01057   0.20884   0.19520  18.12369  81.32630  24.16671    6644.0   17015.6     1.24520     1.89161   179.67786     0.17007     0.00000   145.93620   355.84595            0.5           85.7         6336.8        16912.4           96.3     1       13.60547
      364.76535      259.68341    -5     7    -7   0.01145   0.20995   0.19244  18.41403  86.88351  11.30301    8679.0   14628.6     1.19242     1.33338     0.35631     0.17537     0.00000   365.08743   260.12952            0.5           64.0         7424.7        13376.0           96.3     1       12.97913
      784.13110       52.56545   -10     6    -8   0.00790   0.18807   0.08743  21.05449 100.14454 -15.39700     828.0    3627.6     1.49762     1.83956   166.69652     0.13886     0.00000   784.06616    53.09434            0.5           61.2          669.1         2088.6           96.3     1        8.74703
      300.68002       92.97743    -6     8   -10   0.00571  -0.07829   0.15184  21.50067  97.34389  15.36388     818.0    2436.6     1.13415     1.76052   176.49413     0.09918     0.00000   301.01315    93.10097            0.5           61.1          626.7         1417.9           96.3     1        8.22774
      919.94348      273.25266    -9     5    -5   0.00773  -0.03045   0.25524  19.04812  86.62917 -23.42233    3085.0   10509.6     1.68096     1.88116    17.94433     0.17979     0.00000   920.13977   273.96683            0.4           58.4         2716.4         9732.8           96.3     1       11.74169
       27.58284      162.45135    -3     7    -9   0.00923  -0.17675   0.24757  18.62896  92.52909  30.33559    3767.0    9111.6     1.36103     1.69095   172.15178     0.16354     0.00000    27.92594   162.95883            0.4           50.8         3048.7         7950.1           96.3     1       12.54055
      822.87372       31.33241    -9     5    -7   0.01692   0.44305   0.07573  18.37765 101.32503 -17.70427    3561.0   10380.6     1.48450     1.89849    64.22236     0.19204     0.00000   823.13007    32.02861            0.4           42.9         2819.8         9004.6           96.3     1       13.05542
      261.68170       78.66097    -5     7    -9   0.00686  -0.17346   0.03609  18.81853  98.10423  17.71067    4786.0    8455.6     1.11733     1.33575   177.32758     0.15068     0.00000   262.02676    79.12476            0.4           42.7         4086.2         6910.3           96.3     1       12.17034
      698.75256      226.34308    -9     7    -7   0.01001   0.14262   0.23755  21.74550  89.24377 -10.22744     462.0    2069.6     1.29232     2.05289     9.14329     0.09841     0.00000   699.03839   227.04727            0.4           36.7          318.9          958.6           96.3     1        7.96091
      454.66769       47.76578    -7     7    -9   0.00565   0.10463   0.11742  19.86101 100.54160   5.70453    2522.0    5576.6     1.08541     1.51424     0.43515     0.15262     0.00000   454.98706    48.17667            0.4           35.2         2075.4         3865.0           96.3     1       10.38010
      971.52972       85.57328   -11     5    -7   0.00390  -0.09912  -0.05771  21.17419  97.68928 -26.07228     595.0    2452.6     1.42868     1.71941     9.54302     0.11369     0.00000   972.00336    86.07128            0.3           31.5          421.4         1172.9           96.3     1        8.60336
 dev1, dev2, pixdev=    0.0325700    0.0261600    0.0206300
matrix X  Y  Z -> h  k  l
   0.44379  -0.20020   0.24046
   0.19304   0.50360   0.06302
  -0.24625   0.03398   0.48276
matrix h  k  l -> X  Y  Z
   1.50513   0.65470  -0.83518
  -0.67900   1.70800   0.11524
   0.81555   0.21374   1.63730
Number of missing reflections:      11
x(exp)   y(exp)   h  k  l   energy(keV)   theta(deg)    strfac    theor_integr
      546.35486      225.65315    -4     4    -4  11.26805  89.16958        1.26000      452.52399
      546.35486      225.65315    -5     5    -5  14.08506  89.16958        0.67400      129.38400
      991.57538      299.81628    -8     4    -4  16.51929  85.24318        0.79700      189.47200
      546.35486      225.65315    -7     7    -7  19.71908  89.16958        0.41100       48.06600
      200.37820      748.62018    -2     6    -4  17.06932  60.06869        1.15300      765.55402
       62.29290      408.25131    -1     3    -3   7.85417  78.63340        1.28600      552.77899
        1.70733       14.91616    -2     4    -6  11.10777 100.55485        1.15300      363.42300
        7.12922      891.69659    -1     7    -5  21.00887  56.14916        0.67400      304.38199
      204.77451      323.67258    -4     8    -8  20.66556  83.04957        0.58900      107.12800
      634.55249      454.14185    -7     7    -5  20.85717  74.75612        0.46800       79.91400
      616.95416       49.10585    -9     7    -9  21.55714 100.58128        0.32400       28.72500
Rfactor:      0.57010001
Rotangle(deg):       35.22523
Rodrigues vector:       -0.01472        0.24667        0.19930       35.22523
Quaternion:        0.95312       -0.01403        0.23511        0.18995
Euler angles:        4.02615       24.39439       23.50806
orsnr, orsirxy, orsirxz, orsiryz:  27.24517 -24.28120 -27.02586   4.02615
 Rotation matrix, unit cell to sample:
   0.81728   0.35550  -0.45350
  -0.36870   0.92744   0.06258
   0.44284   0.11606   0.88906
 Rotation matrix, sample to unit cell:
   0.81728  -0.36870   0.44284
   0.35550   0.92744   0.11606
  -0.45350   0.06258   0.88906
Sum of integrated intensities:  1097064.00000
Average integrated intensity per peak:    36568.80078
scale:    0.0100200
depth:    -0.838400
Unindexed reflections:       0
Xstage position:      6000.00
Ystage position:      10480.0
X map position:     113
Y map position:       1
Izero:       2653.0000
Channel A:      0.00000000
Channel B:      0.00000000
Channel C:      0.00000000
Channel D:      0.00000000
Channel E:      0.00000000
Exposure:      2.50000
Average intensity of the image :       105.64179
Average background of the image:       103.70633
