\\vmware-host\Shared Folders\Desktop\SiHyperlaueFinal_shielded_results\results_00056.STR
Number of grains:       1
Grain no:       1   Grainlist file index:       1    Number of peaks:      33
no   x(exp)  y(exp)  h  k  l xdev  ydev  angdev  energy  dspace  twotheta  intens   integr  xwidth   ywidth  tilt  rfactor   pearson  xcentroid  ycentroid
     2      392.62646      871.98438    -2     4    -2  -0.32190  -0.12079   0.01872  12.44775   0.11105  53.29215       59265.00      206363.78     1.78743     2.07148   178.36513     0.21111     0.00000   746.62579   746.62579
     5      746.31226      951.27203    -3     3    -1  -0.33803   0.52766   0.02176  11.59365   0.12490  50.69685       49516.00      128649.78     1.61785     1.93485   102.15993     0.18710     0.00000  1026.75049  1026.75049
    13      991.67084      299.61676    -4     2    -2   0.11881  -0.04056   0.00469   8.25866   0.11084  85.25763       49137.00       85155.78     1.23016     1.55968   179.27272     0.22902     0.00000   282.87247   282.87247
     3      546.03870      225.14491    -3     3    -3   0.11774   0.19586   0.00845   8.45272   0.10446  89.18983       38263.00       58316.78     1.24017     1.24229    66.25449     0.18442     0.00000   992.01324   992.01324
     6     1026.42786      909.51447    -5     3    -1  -0.27923   0.26207   0.01399  14.49344   0.09197  55.43326       46248.00      123160.78     1.62382     1.93856   163.98174     0.26274     0.00000   925.34509   925.34509
     7      924.99078      683.03845    -6     4    -2   0.08761   0.02452   0.00407  16.08296   0.07268  64.06118        1019.00        2378.78     1.15714     1.45992     0.31391     0.08454     0.00000    62.03775    62.03775
    34       61.81442      407.68570    -1     3    -3   0.23758   0.29644   0.01282   7.85968   0.12446  78.64942         522.00        2764.24     1.23885     2.33164     5.66252     0.52932     0.00000   615.84363   615.84363
     4      426.62241      666.11859    -3     5    -3   0.45814  -0.12793   0.02527  14.35970   0.08292  62.75119       79410.00      263239.78     1.80071     1.87288     6.23899     0.23085     0.00000   546.38232   546.38232
    14      648.66736      500.23596    -6     6    -4   0.16213   0.01905   0.00845  18.19138   0.05795  72.04380       14599.00       25549.78     1.21282     1.45884     4.21659     0.18675     0.00000   258.92184   258.92184
     8      668.66687      570.50629    -5     5    -3   0.10420  -0.02933   0.00560  15.64181   0.07079  68.09141       47384.00      220835.78     1.90208     2.78575   175.16013     0.30601     0.00000   426.82867   426.82867
     9      868.08179      257.32391    -5     3    -3   0.10034   0.19391   0.00722  10.82863   0.08280  87.48577       24667.00       50714.78     1.08930     1.86364     0.01442     0.19525     0.00000   649.00226   649.00226
    11      331.58984      270.36053    -4     6    -6  -0.49595  -0.03565   0.02243  15.68223   0.05785  86.21136       31755.00       87744.78     1.77147     1.82856   147.77863     0.22724     0.00000   868.39148   868.39148
    10      282.60925      288.46951    -3     5    -5  -0.42052  -0.03563   0.01869  12.97639   0.07065  85.10129       62627.00       93179.78     1.08448     1.52394     0.20624     0.19567     0.00000   669.00061   669.00061
    19      258.61752      619.59113    -3     7    -5  -0.05588  -0.38718   0.01070  19.09084   0.05964  65.98096       23799.00       46705.78     1.24643     1.68297     7.46876     0.24118     0.00000   129.70065   129.70065
    17      858.87231      567.51544    -7     5    -3   0.16360  -0.26197   0.01079  18.24938   0.05968  69.39107        8835.00       22057.78     1.08718     1.94893     0.07268     0.30082     0.00000   464.01648   464.01648
    31      475.03479      454.85501    -6     8    -6   0.00499   0.04283   0.00133  21.96839   0.04659  74.55586         544.00        2203.78     1.22640     1.93345   179.12315     0.10076     0.00000   699.03595   699.03595
    20      463.66931      498.16791    -5     7    -5   0.35555  -0.13101   0.01897  19.31500   0.05462  71.98180       15095.00       30593.78     1.17408     1.72727   177.68834     0.22221     0.00000   439.08759   439.08759
    22      721.83783      228.64302    -8     6    -6   0.07247   0.03198   0.00340  18.98020   0.04655  89.11428       26197.00       38838.78     1.16714     1.28399   178.90894     0.19979     0.00000   753.86212   753.86212
    15      129.38477       39.61763    -3     5    -7  -0.22157   0.22156   0.01021  13.61983   0.05948  99.85751       15626.00       34326.78     1.55130     1.57747    92.26556     0.22762     0.00000   859.19165   859.19165
    18      438.70093       20.96744    -6     6    -8   0.43128   0.30484   0.01971  17.13927   0.04649 102.16044       10436.00       20254.78     1.22670     1.49679   177.13651     0.21644     0.00000   722.17664   722.17664
    30     1012.69745      601.57404    -9     5    -3   0.01556  -0.14875   0.00384  21.60220   0.05069  68.95898        5704.00       10025.78     1.12177     1.35406   177.31212     0.15862     0.00000   262.01215   262.01215
    16      753.58777      232.69437    -7     5    -5  -0.31764   0.21013   0.01546  16.22796   0.05456  88.87404         964.00        3366.78     1.56118     1.78209   174.12524     0.11117     0.00000   475.04984   475.04984
    21      145.60724      355.19531    -3     7    -7  -0.04763  -0.03645   0.00228  18.13748   0.05245  81.32990        1396.00        3642.78     1.31726     1.57839   174.05983     0.10777     0.00000  1013.01904  1013.01904
    23      364.75290      259.68433    -5     7    -7  -0.04152  -0.08246   0.00327  18.42370   0.04893  86.88872        8001.00       20837.78     1.25223     1.90085   179.36256     0.18104     0.00000   145.92075   145.92075
    29      784.14081       52.58406   -10     6    -8  -0.04293  -0.12236   0.00415  21.07598   0.03835 100.15094        4319.00       12299.78     1.47671     1.80374    90.50351     0.21925     0.00000   823.12415   823.12415
    32      300.68219       92.97639    -6     8   -10  -0.06965   0.02767   0.00294  21.53297   0.03834  97.34205        2963.00        6377.78     1.08471     1.55341     0.71296     0.15506     0.00000   455.00067   455.00067
    25      919.91730      273.31821    -9     5    -5   0.11945  -0.09203   0.00554  19.04892   0.04744  86.63094         961.00        4150.78     1.50096     1.81289   166.96008     0.15007     0.00000   784.10101   784.10101
    26       27.56969      162.41573    -3     7    -9   0.31672   0.04308   0.01070  18.66301   0.04597  92.52924         899.00        2773.78     1.13250     1.79673   175.99455     0.11007     0.00000   301.02884   301.02884
    24      822.87146       31.40918    -9     5    -7   0.18407  -0.15851   0.00816  18.39838   0.04356 101.32937       11048.00       18237.78     1.20059     1.30100     0.77439     0.18621     0.00000   365.09937   365.09937
    27      261.67935       78.66148    -5     7    -9  -0.07233  -0.05482   0.00322  18.84880   0.04354  98.10729        4024.00       12295.78     1.64363     1.82158    19.30319     0.19282     0.00000   920.15924   920.15924
    36      698.71478      226.38309    -9     7    -7   0.08312  -0.13126   0.00562  21.74936   0.04058  89.24967           0.00           0.00     0.00000     0.00000     0.00000     0.00000     0.00000     0.00000     0.00000
    28      454.66519       47.77031    -7     7    -9   0.00749   0.01515   0.00056  19.88911   0.04053 100.54037        4258.00       10665.78     1.39390     1.73912   169.93111     0.17606     0.00000    27.90886    27.90886
    33      971.56140       85.57311   -11     5    -7  -0.35468  -0.29500   0.01533  21.19116   0.03885  97.70718         685.00        2680.78     1.41159     1.64934     8.55582     0.11763     0.00000   971.97327   971.97327
latticeparameters=   0.54324   0.54484   0.54094  89.94963  90.19311  90.25659
dpsx, dpsy: 179.00000 168.38699
dd, xcent, ycent:      150.57201      540.60303      212.87601
pitch,yaw,roll:  -0.22645   0.61642   0.00000
dev1, dev2, pixdev:   0.01230   0.01209   0.25548
deviatoric strain in crystal reference u1 u2 u3 (*10^3)
   0.43708  -2.24679  -1.67877
  -2.24679   3.38397   0.43041
  -1.67877   0.43041  -3.80797
deviatoric strain in sample reference X Y Z (*10^3)
  -0.26361  -0.85123   0.48368
  -0.85123   4.61947   0.17349
   0.48368   0.17349  -4.34278
deviatoric principal strains (*10^3):   4.76451  -0.34379  -4.40765
deviatoric strain principal axes in sample reference:
  -0.16598   0.98608   0.00997
   0.97854   0.16344   0.12545
  -0.12207  -0.03058   0.99205
deviatoric stress in crystal reference u1 u2 u3 (MPa)
       45.28743     -357.28427     -266.95743
     -357.28427      344.98575       68.44331
     -266.95743       68.44331     -386.43478
deviatoric stress in sample reference X Y Z (MPa)
      -38.01662     -197.52592      -28.23489
     -197.52592      566.25519       21.10020
      -28.23489       21.10020     -524.40015
deviatoric principal stresses (MPa):      625.78961      -95.82535     -526.12585
deviatoric stress principal axes in sample reference:
       -0.28608        0.95789        0.02460
       -0.95669       -0.28698        0.04890
        0.05390       -0.00954        0.99850
total strain in sample reference X Y Z (*10^3)
   1.52298  -0.85123   0.48368
  -0.85123   6.40606   0.17349
   0.48368   0.17349  -2.55619
total principal strains (*10^3):   6.55110   1.44281  -2.62106
total strain principal axes in sample reference:
  -0.16598   0.98608   0.00997
   0.97854   0.16344   0.12545
  -0.12207  -0.03058   0.99205
total stress in crystal reference u1 u2 u3 (MPa)
      569.68756     -357.28427     -266.95743
     -357.28427      869.38593       68.44331
     -266.95743       68.44331      137.96538
total stress in sample reference X Y Z (MPa)
      486.38354     -197.52592      -28.23489
     -197.52592     1090.65540       21.10020
      -28.23489       21.10020        0.00000
total principal stresses (MPa):     1150.18982      428.57480       -1.72570
total stress principal axes in sample reference:
       -0.28608        0.95789        0.02460
       -0.95669       -0.28698        0.04890
        0.05390       -0.00954        0.99850
dilatational strain (*10^-3):        1.78659
hydrostatic stress (MPa):      525.67963
Von Mises stress (MPa):     1008.16565
equivalent strain (*10^-3):        5.30698
equivalent stress (MPa):     1008.16565
maximum resolved shear stress:       14.68045
coordinates of a, b, c in X, Y, Z
   0.44441  -0.20243   0.23852
   0.19253   0.50579   0.06497
  -0.24574   0.03226   0.48108
coordinates of a*, b*, c* in X, Y, Z
   1.50606  -0.67795   0.81477
   0.65603   1.70072   0.22106
  -0.83530   0.10644   1.64666
