\\vmware-host\Shared Folders\Desktop\SiHyperlaueFinal_shielded_results\results_00067.STR
Number of grains:       1
Grain no:       1   Grainlist file index:       1    Number of peaks:      33
no   x(exp)  y(exp)  h  k  l xdev  ydev  angdev  energy  dspace  twotheta  intens   integr  xwidth   ywidth  tilt  rfactor   pearson  xcentroid  ycentroid
     2      392.62894      871.97260    -2     4    -2  -0.32575  -0.11712   0.01892  12.44804   0.11104  53.29250       43482.00      151077.61     1.77523     2.06715   178.55141     0.20602     0.00000   746.64185   746.64185
     5      746.32312      951.25616    -3     3    -1  -0.34625   0.52820   0.02218  11.59363   0.12490  50.69746       41768.00      108296.60     1.73756     1.79278   134.42497     0.20911     0.00000  1026.76404  1026.76404
    13      991.67657      299.61856    -4     2    -2   0.12888  -0.05918   0.00522   8.25860   0.11084  85.25864       39575.00       68493.60     1.22651     1.56675   179.37299     0.22150     0.00000   282.87747   282.87747
     3      546.04425      225.14784    -3     3    -3   0.11060   0.18634   0.00800   8.45284   0.10446  89.19026       30537.00       47146.61     1.24259     1.24282   112.49525     0.18416     0.00000   992.01691   992.01691
     7     1026.44409      909.49823    -5     3    -1  -0.27879   0.26839   0.01403  14.49329   0.09197  55.43387         475.00        1405.60     1.12584     1.46498   177.66531     0.06891     0.00000    62.02670    62.02670
     6      925.00189      683.03357    -6     4    -2   0.08726   0.01592   0.00405  16.08283   0.07268  64.06194       41067.00      108912.60     1.69425     1.88258    59.30109     0.24185     0.00000   925.34430   925.34430
    36       61.82142      407.67993    -1     3    -3   0.23720   0.30888   0.01305   7.86001   0.12446  78.64902           0.00           0.00     0.00000     0.00000     0.00000     0.00000     0.00000     0.00000     0.00000
     4      426.62784      666.11853    -3     5    -3   0.45094  -0.13338   0.02489  14.36001   0.08292  62.75148       58007.00      195265.61     1.80597     1.87578     8.93520     0.22873     0.00000   546.37793   546.37793
    14      648.66699      500.21832    -6     6    -4   0.16264   0.02637   0.00850  18.19151   0.05795  72.04441       13646.00       24352.60     1.22040     1.47546     4.58463     0.18890     0.00000   258.90833   258.90833
     8      668.66711      570.49945    -5     5    -3   0.10454  -0.03365   0.00564  15.64189   0.07079  68.09203       39750.00      187742.61     1.90411     2.81788   175.35327     0.30602     0.00000   426.84637   426.84637
    11      868.09961      257.30075    -5     3    -3   0.09109   0.20145   0.00721  10.82860   0.08280  87.48674       21351.00       60601.61     1.78520     1.85263   104.75397     0.21903     0.00000   868.37970   868.37970
    10      331.59009      270.35403    -4     6    -6  -0.49761  -0.02829   0.02249  15.68266   0.05785  86.21130       54854.00       81928.60     1.08478     1.53740     0.14306     0.19278     0.00000   669.00531   669.00531
     9      282.61072      288.46561    -3     5    -5  -0.42259  -0.02937   0.01877  12.97678   0.07064  85.10114       22327.00       46953.61     1.08960     1.87203   179.93578     0.19390     0.00000   649.01379   649.01379
    19      258.61426      619.58551    -3     7    -5  -0.05206  -0.38191   0.01051  19.09148   0.05964  65.98097       19771.00       39091.61     1.24622     1.69122     7.14797     0.23225     0.00000   129.70753   129.70753
    17      858.87793      567.52063    -7     5    -3   0.16547  -0.28102   0.01122  18.24930   0.05968  69.39187        8214.00       20284.60     1.08756     1.94873   179.99088     0.29905     0.00000   464.02292   464.02292
    31      474.99805      454.83386    -6     8    -6   0.03974   0.05909   0.00276  21.96881   0.04659  74.55616         515.00        2146.60     1.25491     2.04303     6.11599     0.09618     0.00000   699.03113   699.03113
    20      463.66974      498.16241    -5     7    -5   0.35314  -0.13036   0.01884  19.31538   0.05462  71.98209       13988.00       28231.60     1.17406     1.72294   177.68262     0.21945     0.00000   439.08963   439.08963
    22      721.85034      228.63908    -8     6    -6   0.06237   0.02363   0.00289  18.98028   0.04655  89.11507       23532.00       34642.61     1.17082     1.27139   178.68311     0.19182     0.00000   753.87537   753.87537
    15      129.37881       39.61746    -3     5    -7  -0.21313   0.23034   0.01016  13.62028   0.05948  99.85703       14315.00       31655.60     1.47642     1.62205    48.65466     0.22249     0.00000   859.19739   859.19739
    18      438.70139       20.96405    -6     6    -8   0.42834   0.30521   0.01961  17.13960   0.04649 102.16063        9552.00       18730.60     1.22600     1.52413   178.73766     0.20774     0.00000   722.16150   722.16150
    30     1012.70410      601.57312    -9     5    -3   0.02524  -0.16096   0.00426  21.60199   0.05069  68.95979        5295.00        9272.60     1.11707     1.37142   177.06136     0.15010     0.00000   262.02045   262.02045
    16      753.59363      232.69476    -7     5    -5  -0.31998   0.19659   0.01538  16.22800   0.05456  88.87488         945.00        3165.60     1.52380     1.74807   171.06079     0.10797     0.00000   475.05051   475.05051
    21      145.60947      355.20413    -3     7    -7  -0.04667  -0.03965   0.00230  18.13817   0.05245  81.32956        1270.00        3475.60     1.32250     1.55666   171.24484     0.11218     0.00000  1013.01294  1013.01294
    23      364.75574      259.68509    -5     7    -7  -0.04617  -0.08345   0.00342  18.42417   0.04893  86.88873        7448.00       19422.60     1.25102     1.89599   179.32016     0.18100     0.00000   145.91721   145.91721
    29      784.14136       52.51524   -10     6    -8  -0.03836  -0.06920   0.00264  21.07603   0.03835 100.15188        4023.00       11671.60     1.48052     1.85940    76.25509     0.20785     0.00000   823.13562   823.13562
    32      300.67941       93.02273    -6     8   -10  -0.06828  -0.01626   0.00277  21.53356   0.03834  97.34190        2796.00        6071.60     1.08178     1.54179     0.27287     0.15636     0.00000   454.98770   454.98770
    25      919.91437      273.28848    -9     5    -5   0.13376  -0.07864   0.00587  19.04884   0.04744  86.63194         861.00        3856.60     1.62459     1.90016    82.57383     0.13944     0.00000   784.08063   784.08063
    26       27.58107      162.43394    -3     7    -9   0.31238   0.03545   0.01054  18.66374   0.04597  92.52865         830.00        2682.60     1.13590     1.86180   177.18063     0.10569     0.00000   301.02347   301.02347
    24      822.87537       31.37680    -9     5    -7   0.18710  -0.14331   0.00803  18.39840   0.04356 101.33038        9916.00       16548.60     1.20516     1.30801     0.79345     0.18097     0.00000   365.12808   365.12808
    27      261.67865       78.66473    -5     7    -9  -0.07243  -0.05421   0.00322  18.84934   0.04354  98.10706        3667.00       11397.60     1.62729     1.83524    17.77668     0.19168     0.00000   920.13452   920.13452
    35      698.72931      226.35426    -9     7    -7   0.07026  -0.11405   0.00483  21.74947   0.04058  89.25042           0.00           0.00     0.00000     0.00000     0.00000     0.00000     0.00000     0.00000     0.00000
    28      454.66809       47.78317    -7     7    -9   0.00219  -0.00126   0.00010  19.88948   0.04053 100.54059        4099.00        9974.60     1.35827     1.72140   170.15439     0.17237     0.00000    27.91347    27.91347
    33      971.58514       85.56371   -11     5    -7  -0.36317  -0.30576   0.01577  21.19107   0.03885  97.70830         681.00        2615.60     1.29061     1.75301    11.60830     0.11741     0.00000   971.99115   971.99115
latticeparameters=   0.54325   0.54483   0.54093  89.94802  90.19268  90.25830
dpsx, dpsy: 179.00000 168.38699
dd, xcent, ycent:      150.57201      540.60303      212.87601
pitch,yaw,roll:  -0.22645   0.61642   0.00000
dev1, dev2, pixdev:   0.01229   0.01210   0.25474
deviatoric strain in crystal reference u1 u2 u3 (*10^3)
   0.45818  -2.26173  -1.67509
  -2.26173   3.36434   0.44433
  -1.67509   0.44433  -3.80949
deviatoric strain in sample reference X Y Z (*10^3)
  -0.26821  -0.87828   0.49279
  -0.87828   4.61716   0.17289
   0.49279   0.17289  -4.33592
deviatoric principal strains (*10^3):   4.77106  -0.35467  -4.40336
deviatoric strain principal axes in sample reference:
  -0.17079   0.98526   0.00946
   0.97737   0.16819   0.12828
  -0.12480  -0.03116   0.99169
deviatoric stress in crystal reference u1 u2 u3 (MPa)
       47.42952     -359.66080     -266.37247
     -359.66080      342.98608       70.65680
     -266.37247       70.65680     -386.59213
deviatoric stress in sample reference X Y Z (MPa)
      -39.39671     -201.08434      -27.20677
     -201.08434      566.67957       21.32914
      -27.20677       21.32914     -523.45935
deviatoric principal stresses (MPa):      628.02148      -99.11412     -525.08386
deviatoric stress principal axes in sample reference:
       -0.28931        0.95692        0.02456
       -0.95583       -0.29018        0.04670
        0.05181       -0.00997        0.99861
total strain in sample reference X Y Z (*10^3)
   1.51517  -0.87828   0.49279
  -0.87828   6.40054   0.17289
   0.49279   0.17289  -2.55253
total principal strains (*10^3):   6.55445   1.42871  -2.61998
total strain principal axes in sample reference:
  -0.17079   0.98526   0.00946
   0.97737   0.16819   0.12828
  -0.12480  -0.03116   0.99169
total stress in crystal reference u1 u2 u3 (MPa)
      570.88885     -359.66080     -266.37247
     -359.66080      866.44543       70.65680
     -266.37247       70.65680      136.86723
total stress in sample reference X Y Z (MPa)
      484.06265     -201.08434      -27.20677
     -201.08434     1090.13892       21.32914
      -27.20677       21.32914        0.00000
total principal stresses (MPa):     1151.48083      424.34525       -1.62449
total stress principal axes in sample reference:
       -0.28931        0.95692        0.02456
       -0.95583       -0.29018        0.04670
        0.05181       -0.00997        0.99861
dilatational strain (*10^-3):        1.78339
hydrostatic stress (MPa):      524.73383
Von Mises stress (MPa):     1009.90796
equivalent strain (*10^-3):        5.30901
equivalent stress (MPa):     1009.90796
maximum resolved shear stress:       17.02424
coordinates of a, b, c in X, Y, Z
   0.44443  -0.20243   0.23853
   0.19251   0.50580   0.06497
  -0.24574   0.03226   0.48109
coordinates of a*, b*, c* in X, Y, Z
   1.50610  -0.67788   0.81476
   0.65605   1.70079   0.22104
  -0.83532   0.10642   1.64669
