\\vmware-host\Shared Folders\Desktop\SiHyperlaueFinal_shielded_results\results_00100.STR
Number of grains:       1
Grain no:       1   Grainlist file index:       1    Number of peaks:      32
no   x(exp)  y(exp)  h  k  l xdev  ydev  angdev  energy  dspace  twotheta  intens   integr  xwidth   ywidth  tilt  rfactor   pearson  xcentroid  ycentroid
     2      392.63818      871.98004    -2     4    -2  -0.29862  -0.10774   0.01735  12.45000   0.11103  53.29163       30954.00      100770.13     1.71123     2.04424   178.49632     0.21105     0.00000   746.67474   746.67474
     5      746.37225      951.27209    -3     3    -1  -0.38063   0.51134   0.02376  11.59473   0.12488  50.69761       34438.00       86877.13     1.60229     1.88321   159.16608     0.23291     0.00000  1026.77832  1026.77832
    14      991.68384      299.62131    -4     2    -2   0.14419  -0.10283   0.00628   8.25873   0.11083  85.26106       12292.00       28491.13     1.51256     1.65983    15.14512     0.22189     0.00000   859.20325   859.20325
     4      546.06830      225.14854    -3     3    -3   0.08998   0.19305   0.00759   8.45360   0.10445  89.18978       41328.00      143927.13     1.82479     1.87598    19.86899     0.22558     0.00000   546.38086   546.38086
     7     1026.47534      909.49561    -5     3    -1  -0.28250   0.25477   0.01406  14.49383   0.09196  55.43487       31368.00      153362.13     1.90756     2.89648   175.48138     0.30847     0.00000   426.87531   426.87531
     6      925.00763      683.00464    -6     4    -2   0.09964   0.02862   0.00463  16.08358   0.07267  64.06291       35724.00       93396.13     1.61420     1.93804    25.42234     0.24202     0.00000   925.35022   925.35022
     3      426.64392      666.11084    -3     5    -3   0.46223  -0.10334   0.02545  14.36211   0.08291  62.75025       25511.00       39657.13     1.23320     1.24158   163.57237     0.18617     0.00000   992.02533   992.02533
    12      648.66687      500.20520    -6     6    -4   0.17214   0.04477   0.00905  18.19322   0.05794  72.04413       31626.00       53884.13     1.21177     1.54699   179.54617     0.21479     0.00000   282.89041   282.89041
     8      668.66693      570.49542    -5     5    -3   0.11522  -0.02496   0.00616  15.64338   0.07078  68.09181       19595.00       42071.13     1.08872     1.88069     0.00000     0.19198     0.00000   649.00543   649.00543
    13      868.13269      257.27365    -5     3    -3   0.06804   0.19892   0.00669  10.82896   0.08279  87.48857       12636.00       21723.13     1.19989     1.44432     3.91151     0.17668     0.00000   258.92264   258.92264
     9      331.59647      270.35672    -4     6    -6  -0.48403  -0.00236   0.02185  15.68462   0.05784  86.20948       46511.00       69769.13     1.08423     1.54282     0.01137     0.19061     0.00000   669.00348   669.00348
    10      282.61667      288.47528    -3     5    -5  -0.40249  -0.00703   0.01784  12.97849   0.07064  85.09912       13484.00       39879.13     1.79270     1.88945    98.01542     0.20514     0.00000   868.35181   868.35181
    19      258.62170      619.59302    -3     7    -5  -0.01374  -0.36228   0.00954  19.09455   0.05963  65.97926       12169.00       24642.13     1.17182     1.72749   177.78464     0.21164     0.00000   439.07520   439.07520
    17      858.89325      567.49573    -7     5    -3   0.16338  -0.27007   0.01094  18.25028   0.05967  69.39272        8520.00       17229.13     1.23402     1.54768   177.88377     0.20928     0.00000   722.16107   722.16107
    31      475.04208      454.87039    -6     8    -6   0.01212   0.04266   0.00145  21.97152   0.04658  74.55493        2620.00        5689.13     1.08138     1.52592     0.98020     0.14990     0.00000   455.00253   455.00253
    20      463.66980      498.15128    -5     7    -5   0.37185  -0.09799   0.01967  19.31787   0.05461  71.98082        1216.00        3323.13     1.34177     1.59799   172.19499     0.10464     0.00000  1013.00543  1013.00543
    22      721.86407      228.63379    -8     6    -6   0.05100   0.01559   0.00233  18.98137   0.04655  89.11593        6693.00       17407.13     1.24430     1.89545   179.44881     0.17413     0.00000   145.92398   145.92398
    15      129.38840       39.62445    -3     5    -7  -0.19864   0.26406   0.01050  13.62188   0.05947  99.85482         869.00        3172.13     1.60352     1.81708    12.00294     0.10847     0.00000   475.06677   475.06677
    18      438.70029       20.96851    -6     6    -8   0.42624   0.31027   0.01961  17.14106   0.04648 102.16003       16125.00       31240.13     1.22633     1.67934     6.64195     0.22002     0.00000   129.73904   129.73904
    30     1012.70721      601.54419    -9     5    -3   0.04790  -0.15757   0.00459  21.60256   0.05069  68.96132         486.00        2119.13     1.33052     2.08875   173.93546     0.09619     0.00000   698.99774   698.99774
    16      753.59595      232.69144    -7     5    -5  -0.31895   0.18292   0.01517  16.22884   0.05456  88.87596        7627.00       18635.13     1.08899     1.94579     0.05447     0.29950     0.00000   464.00076   464.00076
    21      145.61362      355.20895    -3     7    -7  -0.00317  -0.00733   0.00026  18.14083   0.05244  81.32725       20678.00       30256.13     1.16060     1.26403   177.77197     0.18793     0.00000   753.89142   753.89142
    23      364.76321      259.68579    -5     7    -7  -0.03737  -0.05824   0.00254  18.42638   0.04893  86.88708        8820.00       15115.13     1.20279     1.33016     2.95376     0.18074     0.00000   365.09772   365.09772
    29      784.14178       52.52521   -10     6    -8  -0.03860  -0.11355   0.00383  21.07676   0.03835 100.15397        4889.00        8457.13     1.11594     1.33899   176.66496     0.14559     0.00000   262.01328   262.01328
    33      300.67694       92.97153    -6     8   -10  -0.05485   0.06238   0.00296  21.53590   0.03833  97.34023         610.00        2434.22     1.36405     1.79847    16.01220     0.11308     0.00000   971.97046   971.97046
    24      919.94434      273.23172    -9     5    -5   0.11841  -0.05660   0.00505  19.04931   0.04744  86.63405         804.00        3672.13     1.67995     1.89843    77.78879     0.13477     0.00000   784.06354   784.06354
    26       27.57220      162.42921    -3     7    -9   0.37059   0.08640   0.01266  18.66623   0.04597  92.52615        3084.00       10613.13     1.68273     1.88796    17.09245     0.18072     0.00000   920.14056   920.14056
    25      822.88055       31.35322    -9     5    -7   0.18434  -0.16168   0.00822  18.39890   0.04356 101.33288         779.00        2353.13     1.13274     1.76195   175.99922     0.09425     0.00000   301.00751   301.00751
    27      261.67920       78.66621    -5     7    -9  -0.05960  -0.02514   0.00242  18.85144   0.04354  98.10524        3703.00        9249.13     1.39371     1.70878   168.84435     0.16855     0.00000    27.91881    27.91881
    34      698.74353      226.33267    -9     7    -7   0.05790  -0.10306   0.00420  21.75081   0.04057  89.25110         522.00        2764.24     1.23885     2.33164     5.66252     0.52932     0.00000   615.84363   615.84363
    28      454.66690       47.76570    -7     7    -9   0.00117   0.02541   0.00080  19.89118   0.04052 100.54001        3523.00       10490.13     1.48360     1.90468    41.03932     0.20630     0.00000   823.10748   823.10748
    32      971.56171       85.54858   -11     5    -7  -0.32088  -0.34796   0.01538  21.19127   0.03885  97.71155         618.00        2589.13     1.37095     1.67301    19.05779     0.12317     0.00000   971.96625   971.96625
latticeparameters=   0.54330   0.54478   0.54094  89.94717  90.19001  90.25708
dpsx, dpsy: 179.00000 168.38699
dd, xcent, ycent:      150.57201      540.60303      212.87601
pitch,yaw,roll:  -0.22645   0.61642   0.00000
dev1, dev2, pixdev:   0.01228   0.01210   0.24889
deviatoric strain in crystal reference u1 u2 u3 (*10^3)
   0.54700  -2.25079  -1.65188
  -2.25079   3.26493   0.45191
  -1.65188   0.45191  -3.79923
deviatoric strain in sample reference X Y Z (*10^3)
  -0.23241  -0.93014   0.53349
  -0.93014   4.53631   0.15034
   0.53349   0.15034  -4.29119
deviatoric principal strains (*10^3):   4.71158  -0.33047  -4.36841
deviatoric strain principal axes in sample reference:
  -0.18432   0.98285   0.00549
   0.97360   0.18181   0.13804
  -0.13467  -0.03079   0.99041
deviatoric stress in crystal reference u1 u2 u3 (MPa)
       56.44246     -357.92130     -262.68234
     -357.92130      332.85565       71.86224
     -262.68234       71.86224     -385.56946
deviatoric stress in sample reference X Y Z (MPa)
      -36.50407     -205.87083      -22.07960
     -205.87083      557.96899       19.19313
      -22.07960       19.19313     -517.73627
deviatoric principal stresses (MPa):      622.84570     -100.27357     -518.84344
deviatoric stress principal axes in sample reference:
       -0.29864        0.95412        0.02184
       -0.95346       -0.29927        0.03667
        0.04152       -0.00987        0.99909
total strain in sample reference X Y Z (*10^3)
   1.53148  -0.93014   0.53349
  -0.93014   6.30019   0.15034
   0.53349   0.15034  -2.52730
total principal strains (*10^3):   6.47546   1.43342  -2.60452
total strain principal axes in sample reference:
  -0.18432   0.98285   0.00549
   0.97360   0.18181   0.13804
  -0.13467  -0.03079   0.99041
total stress in crystal reference u1 u2 u3 (MPa)
      574.17871     -357.92130     -262.68234
     -357.92130      850.59192       71.86224
     -262.68234       71.86224      132.16679
total stress in sample reference X Y Z (MPa)
      481.23218     -205.87083      -22.07960
     -205.87083     1075.70520       19.19313
      -22.07960       19.19313        0.00000
total principal stresses (MPa):     1140.58191      417.46268       -1.10722
total stress principal axes in sample reference:
       -0.29864        0.95412        0.02184
       -0.95346       -0.29927        0.03667
        0.04152       -0.00987        0.99909
dilatational strain (*10^-3):        1.76389
hydrostatic stress (MPa):      518.97913
Von Mises stress (MPa):     1000.38904
equivalent strain (*10^-3):        5.25301
equivalent stress (MPa):     1000.38904
maximum resolved shear stress:       23.80395
coordinates of a, b, c in X, Y, Z
   0.44452  -0.20240   0.23860
   0.19246   0.50582   0.06494
  -0.24576   0.03227   0.48114
coordinates of a*, b*, c* in X, Y, Z
   1.50617  -0.67770   0.81476
   0.65599   1.70120   0.22096
  -0.83545   0.10644   1.64679
