\\vmware-host\Shared Folders\Desktop\SiHyperlaueFinal_shielded_results\results_00113.STR
Number of grains:       1
Grain no:       1   Grainlist file index:       1    Number of peaks:      32
no   x(exp)  y(exp)  h  k  l xdev  ydev  angdev  energy  dspace  twotheta  intens   integr  xwidth   ywidth  tilt  rfactor   pearson  xcentroid  ycentroid
     2      392.64066      872.00391    -2     4    -2  -0.29768  -0.11777   0.01734  12.44944   0.11104  53.29104       29049.00       91618.57     1.68365     2.02943   178.43939     0.21394     0.00000   746.68152   746.68152
     5      746.39001      951.28790    -3     3    -1  -0.38766   0.50722   0.02409  11.59437   0.12489  50.69725       32399.00       81217.57     1.59181     1.88582   127.09445     0.18741     0.00000  1026.77661  1026.77661
    14      991.68579      299.61737    -4     2    -2   0.13417  -0.09456   0.00583   8.25870   0.11083  85.26079       11881.00       27674.57     1.49433     1.67364    41.03176     0.22235     0.00000   859.19751   859.19751
     4      546.07220      225.15401    -3     3    -3   0.08936   0.19151   0.00754   8.45343   0.10445  89.18953       39300.00      138252.56     1.82757     1.87712    20.80266     0.22490     0.00000   546.38013   546.38013
     7     1026.45789      909.49200    -5     3    -1  -0.25937   0.25988   0.01314  14.49354   0.09196  55.43489       30141.00      147165.56     1.90767     2.92526   175.63779     0.30963     0.00000   426.88760   426.88760
     6      925.02124      683.01135    -6     4    -2   0.09099   0.02406   0.00423  16.08327   0.07267  64.06286       33599.00       89197.57     1.60956     1.96458    77.91959     0.26333     0.00000   925.35095   925.35095
     3      426.65067      666.12347    -3     5    -3   0.45975  -0.11086   0.02533  14.36149   0.08291  62.74998       24550.00       38314.57     1.24140     1.24445   163.90735     0.18482     0.00000   992.03131   992.03131
    12      648.66760      500.20837    -6     6    -4   0.17753   0.04402   0.00932  18.19271   0.05794  72.04400       31112.00       52128.57     1.20803     1.52038   179.45468     0.21235     0.00000   282.89926   282.89926
     8      668.66675      570.49817    -5     5    -3   0.12232  -0.02477   0.00653  15.64291   0.07079  68.09168       19029.00       40574.57     1.09055     1.87680     0.00000     0.18940     0.00000   649.01520   649.01520
    13      868.12317      257.28076    -5     3    -3   0.07440   0.19740   0.00676  10.82889   0.08280  87.48822       12175.00       21183.57     1.18990     1.45094     3.36482     0.18121     0.00000   258.93033   258.93033
     9      331.59824      270.37628    -4     6    -6  -0.48334  -0.01977   0.02184  15.68415   0.05784  86.20935       45307.00       67576.57     1.08444     1.53212     0.03846     0.19160     0.00000   668.99994   668.99994
    10      282.61844      288.48862    -3     5    -5  -0.40256  -0.01834   0.01786  12.97808   0.07064  85.09900       13237.00       38776.57     1.80929     1.86071   106.88884     0.20523     0.00000   868.35199   868.35199
    19      258.62518      619.58887    -3     7    -5  -0.01777  -0.35244   0.00931  19.09369   0.05963  65.97897       12145.00       24535.57     1.17420     1.72049   177.61057     0.21345     0.00000   439.08032   439.08032
    17      858.89453      567.49731    -7     5    -3   0.16666  -0.26921   0.01104  18.24993   0.05968  69.39262        8279.00       17031.57     1.23400     1.57211   178.03123     0.20864     0.00000   722.15967   722.15967
    31      475.04666      454.82892    -6     8    -6   0.01213   0.08581   0.00269  21.97076   0.04659  74.55483        2522.00        5576.57     1.08541     1.51424     0.43515     0.15262     0.00000   454.98706   454.98706
    20      463.67050      498.16095    -5     7    -5   0.37576  -0.10571   0.01990  19.31716   0.05461  71.98070        1126.00        3107.57     1.33422     1.60410   170.54790     0.10339     0.00000  1013.01050  1013.01050
    21      721.87311      228.63654    -8     6    -6   0.04287   0.01828   0.00200  18.98115   0.04655  89.11558       20380.00       29637.57     1.15710     1.26050   179.27068     0.18509     0.00000   753.89111   753.89111
    15      129.38148       39.62771    -3     5    -7  -0.18861   0.26810   0.01035  13.62160   0.05947  99.85442         873.00        3009.57     1.48732     1.79733   176.60294     0.10321     0.00000   475.07751   475.07751
    18      438.70212       20.96322    -6     6    -8   0.42692   0.32481   0.01985  17.14085   0.04649 102.15946       15457.00       30170.57     1.22225     1.68804     6.31735     0.21758     0.00000   129.73793   129.73793
    30     1012.72192      601.55206    -9     5    -3   0.03300  -0.16533   0.00448  21.60228   0.05069  68.96132         462.00        2069.57     1.29232     2.05289     9.14329     0.09841     0.00000   699.03839   699.03839
    16      753.59760      232.69044    -7     5    -5  -0.32041   0.18951   0.01531  16.22867   0.05456  88.87561        7355.00       18069.57     1.09042     1.94592   179.93941     0.29812     0.00000   464.00757   464.00757
    22      145.61455      355.21777    -3     7    -7  -0.00564  -0.01335   0.00046  18.14017   0.05245  81.32709        6644.00       17015.57     1.24520     1.89161   179.67786     0.17007     0.00000   145.93620   145.93620
    23      364.76535      259.68341    -5     7    -7  -0.03665  -0.05355   0.00241  18.42586   0.04893  86.88693        8679.00       14628.57     1.19242     1.33338     0.35631     0.17537     0.00000   365.08743   365.08743
    29      784.13110       52.56545   -10     6    -8  -0.03353  -0.14183   0.00457  21.07675   0.03835 100.15326        4786.00        8455.57     1.11733     1.33575   177.32758     0.15068     0.00000   262.02676   262.02676
    33      300.68002       92.97743    -6     8   -10  -0.05496   0.06221   0.00296  21.53547   0.03834  97.33989         610.00        2434.22     1.36405     1.79847    16.01220     0.11308     0.00000   971.97046   971.97046
    24      919.94348      273.25266    -9     5    -5   0.11421  -0.07229   0.00507  19.04922   0.04744  86.63372         828.00        3627.57     1.49762     1.83956   166.69652     0.13886     0.00000   784.06616   784.06616
    26       27.58284      162.45135    -3     7    -9   0.35975   0.06918   0.01222  18.66572   0.04597  92.52587        3085.00       10509.57     1.68096     1.88116    17.94433     0.17979     0.00000   920.13977   920.13977
    25      822.87372       31.33241    -9     5    -7   0.18306  -0.12749   0.00768  18.39893   0.04356 101.33210         818.00        2436.57     1.13415     1.76052   176.49413     0.09918     0.00000   301.01315   301.01315
    27      261.68170       78.66097    -5     7    -9  -0.05912  -0.01384   0.00232  18.85105   0.04354  98.10488        3767.00        9111.57     1.36103     1.69095   172.15178     0.16354     0.00000    27.92594    27.92594
    34      698.75256      226.34308    -9     7    -7   0.05025  -0.10818   0.00414  21.75054   0.04057  89.25076         522.00        2764.24     1.23885     2.33164     5.66252     0.52932     0.00000   615.84363   615.84363
    28      454.66769       47.76578    -7     7    -9   0.00286   0.03365   0.00106  19.89092   0.04053 100.53949        3561.00       10380.57     1.48450     1.89849    64.22236     0.19204     0.00000   823.13007   823.13007
    32      971.52972       85.57328   -11     5    -7  -0.30384  -0.36074   0.01520  21.19135   0.03885  97.71091         595.00        2452.57     1.42868     1.71941     9.54302     0.11369     0.00000   972.00336   972.00336
latticeparameters=   0.54328   0.54481   0.54093  89.94758  90.19202  90.25739
dpsx, dpsy: 179.00000 168.38699
dd, xcent, ycent:      150.57201      540.60303      212.87601
pitch,yaw,roll:  -0.22645   0.61642   0.00000
dev1, dev2, pixdev:   0.01225   0.01208   0.24968
deviatoric strain in crystal reference u1 u2 u3 (*10^3)
   0.51728  -2.25362  -1.66925
  -2.25362   3.31939   0.44822
  -1.66925   0.44822  -3.82371
deviatoric strain in sample reference X Y Z (*10^3)
  -0.23800  -0.90646   0.52409
  -0.90646   4.58114   0.16171
   0.52409   0.16171  -4.33017
deviatoric principal strains (*10^3):   4.74647  -0.32877  -4.40474
deviatoric strain principal axes in sample reference:
  -0.17818   0.98397   0.00724
   0.97519   0.17560   0.13482
  -0.13139  -0.03109   0.99084
deviatoric stress in crystal reference u1 u2 u3 (MPa)
       53.43619     -358.37085     -265.44406
     -358.37085      338.41037       71.27572
     -265.44406       71.27572     -388.04257
deviatoric stress in sample reference X Y Z (MPa)
      -36.34996     -203.68907      -23.66517
     -203.68907      562.67914       20.42920
      -23.66517       20.42920     -522.52515
deviatoric principal stresses (MPa):      625.98853      -98.39949     -523.78503
deviatoric stress principal axes in sample reference:
       -0.29462        0.95534        0.02306
       -0.95460       -0.29533        0.03904
        0.04411       -0.01052        0.99897
total strain in sample reference X Y Z (*10^3)
   1.54220  -0.90646   0.52409
  -0.90646   6.36134   0.16171
   0.52409   0.16171  -2.54997
total principal strains (*10^3):   6.52668   1.45143  -2.62454
total strain principal axes in sample reference:
  -0.17818   0.98397   0.00724
   0.97519   0.17560   0.13482
  -0.13139  -0.03109   0.99084
total stress in crystal reference u1 u2 u3 (MPa)
      575.96136     -358.37085     -265.44406
     -358.37085      860.93555       71.27572
     -265.44406       71.27572      134.48259
total stress in sample reference X Y Z (MPa)
      486.17520     -203.68907      -23.66517
     -203.68907     1085.20422       20.42920
      -23.66517       20.42920        0.00000
total principal stresses (MPa):     1148.51379      424.12564       -1.25989
total stress principal axes in sample reference:
       -0.29462        0.95534        0.02306
       -0.95460       -0.29533        0.03904
        0.04411       -0.01052        0.99897
dilatational strain (*10^-3):        1.78020
hydrostatic stress (MPa):      523.79315
Von Mises stress (MPa):     1006.89380
equivalent strain (*10^-3):        5.29395
equivalent stress (MPa):     1006.89380
maximum resolved shear stress:       21.21127
coordinates of a, b, c in X, Y, Z
   0.44449  -0.20241   0.23857
   0.19247   0.50582   0.06497
  -0.24576   0.03225   0.48111
coordinates of a*, b*, c* in X, Y, Z
   1.50614  -0.67774   0.81479
   0.65595   1.70104   0.22104
  -0.83544   0.10637   1.64679
