\\vmware-host\Shared Folders\Desktop\SiHyperlaueFinal_shielded_results\results_00051.STR
Number of grains:       1
Grain no:       1   Grainlist file index:       1    Number of peaks:      33
no   x(exp)  y(exp)  h  k  l xdev  ydev  angdev  energy  dspace  twotheta  intens   integr  xwidth   ywidth  tilt  rfactor   pearson  xcentroid  ycentroid
     2      392.62500      871.98700    -2     4    -2  -0.32532  -0.11134   0.01887  12.44698   0.11106  53.29167       58927.00      205481.42     1.79765     2.07307   178.30608     0.21185     0.00000   746.61987   746.61987
     5      746.30151      951.28076    -3     3    -1  -0.31979   0.53795   0.02096  11.59315   0.12490  50.69618       48884.00      127096.42     1.61955     1.93190   100.71922     0.18862     0.00000  1026.74878  1026.74878
    13      991.67035      299.61938    -4     2    -2   0.09505  -0.03968   0.00381   8.25869   0.11084  85.25736       48924.00       84856.42     1.22847     1.56401   179.05040     0.22917     0.00000   282.87720   282.87720
     3      546.03284      225.15080    -3     3    -3   0.11833   0.19184   0.00837   8.45262   0.10446  89.18971       38372.00       58192.42     1.23642     1.23896    93.09059     0.18316     0.00000   992.01001   992.01001
     6     1026.42749      909.51929    -5     3    -1  -0.27751   0.26576   0.01395  14.49308   0.09197  55.43295       46240.00      122859.42     1.59850     1.95972   142.53004     0.24280     0.00000   925.33752   925.33752
     7      924.98535      683.04193    -6     4    -2   0.09167   0.02354   0.00426  16.08256   0.07268  64.06105        1061.00        2331.42     1.14638     1.41055     0.57352     0.08159     0.00000    62.01855    62.01855
    35       61.79410      407.68326    -1     3    -3   0.24644   0.29422   0.01305   7.85939   0.12447  78.64973           0.00           0.00     0.00000     0.00000     0.00000     0.00000     0.00000     0.00000     0.00000
     4      426.61887      666.12219    -3     5    -3   0.45827  -0.13158   0.02529  14.35889   0.08292  62.75120       79032.00      262150.44     1.79516     1.87431     6.37714     0.23128     0.00000   546.37744   546.37744
    14      648.66699      500.23264    -6     6    -4   0.16165   0.02099   0.00843  18.19076   0.05795  72.04388       14703.00       25888.42     1.22075     1.45489     4.86893     0.19034     0.00000   258.91251   258.91251
     8      668.66693      570.51184    -5     5    -3   0.10468  -0.03520   0.00565  15.64121   0.07079  68.09143       48019.00      222309.42     1.90218     2.77248   175.33246     0.30501     0.00000   426.82516   426.82516
     9      868.08618      257.31644    -5     3    -3   0.07934   0.20641   0.00710  10.82864   0.08280  87.48544       24728.00       51036.42     1.08924     1.86292     0.00597     0.19731     0.00000   649.00525   649.00525
    11      331.58707      270.36218    -4     6    -6  -0.49775  -0.03972   0.02252  15.68185   0.05785  86.21151       32050.00       87576.42     1.74474     1.87738    22.33486     0.22480     0.00000   868.38501   868.38501
    10      282.60974      288.46701    -3     5    -5  -0.42620  -0.03638   0.01894  12.97604   0.07065  85.10149       63080.00       93088.42     1.08442     1.51265     0.15169     0.19408     0.00000   669.00336   669.00336
    19      258.61343      619.59497    -3     7    -5  -0.06157  -0.39278   0.01094  19.08977   0.05964  65.98111       23923.00       46846.42     1.24288     1.69104     7.18524     0.23758     0.00000   129.69469   129.69469
    17      858.87000      567.53113    -7     5    -3   0.16314  -0.27689   0.01106  18.24895   0.05968  69.39101        8659.00       21670.42     1.08515     1.94862   179.97838     0.30261     0.00000   464.00616   464.00616
    31      475.01501      454.83777    -6     8    -6   0.02189   0.05631   0.00207  21.96751   0.04659  74.55609         585.00        2410.42     1.24953     1.90045     7.46740     0.10764     0.00000   699.02020   699.02020
    20      463.66864      498.17108    -5     7    -5   0.35337  -0.13786   0.01889  19.31414   0.05462  71.98202       15299.00       30771.42     1.17124     1.73021   177.55534     0.22065     0.00000   439.08450   439.08450
    22      721.83978      228.64224    -8     6    -6   0.06060   0.03733   0.00296  18.98013   0.04655  89.11398       26399.00       38946.42     1.16903     1.27715   179.13943     0.19794     0.00000   753.87201   753.87201
    15      129.37933       39.61773    -3     5    -7  -0.21416   0.22919   0.01016  13.61982   0.05948  99.85708       15867.00       34313.42     1.45785     1.60065    63.18599     0.22601     0.00000   859.19537   859.19537
    18      438.69977       20.96994    -6     6    -8   0.42731   0.31501   0.01972  17.13940   0.04649 102.15965       10416.00       20097.42     1.22218     1.50161   177.88232     0.21445     0.00000   722.16266   722.16266
    30     1012.69537      601.58350    -9     5    -3   0.00807  -0.15902   0.00403  21.60187   0.05069  68.95893        5799.00       10086.42     1.11567     1.33934   178.84921     0.15908     0.00000   262.00189   262.00189
    16      753.59113      232.69583    -7     5    -5  -0.33214   0.21351   0.01609  16.22791   0.05456  88.87372         993.00        3260.42     1.53690     1.79074   173.99152     0.10402     0.00000   475.09186   475.09186
    21      145.61021      355.19803    -3     7    -7  -0.05900  -0.04387   0.00281  18.13688   0.05245  81.33020        1347.00        3624.42     1.33406     1.53374   169.69470     0.11295     0.00000  1013.00012  1013.00012
    23      364.74918      259.68597    -5     7    -7  -0.04212  -0.08589   0.00337  18.42329   0.04893  86.88883        8036.00       20931.42     1.24744     1.89691   179.20456     0.18302     0.00000   145.91035   145.91035
    29      784.09271       52.58181   -10     6    -8  -0.01622  -0.10359   0.00325  21.07633   0.03835 100.14998        4467.00       12396.42     1.37391     1.55583     0.00000     0.24043     0.00000   823.13446   823.13446
    33      300.68344       92.97625    -6     8   -10  -0.07335   0.03333   0.00314  21.53288   0.03834  97.34171         677.00        2689.42     1.44140     1.69475     9.53316     0.11835     0.00000   971.97748   971.97748
    24      919.90277      273.31042    -9     5    -5   0.11439  -0.07961   0.00518  19.04897   0.04744  86.63063       10994.00       17953.42     1.20255     1.29509   179.24512     0.18113     0.00000   365.10150   365.10150
    26       27.56859      162.42555    -3     7    -9   0.31608   0.03348   0.01066  18.66277   0.04597  92.52922         892.00        2594.42     1.13585     1.75572   177.22179     0.10427     0.00000   301.00687   301.00687
    25      822.78290       31.47992    -9     5    -7   0.24688  -0.21025   0.01091  18.39874   0.04356 101.32831        1024.00        4181.42     1.49728     1.81580   164.40788     0.15073     0.00000   784.09973   784.09973
    27      261.67923       78.65884    -5     7    -9  -0.07384  -0.04611   0.00315  18.84874   0.04354  98.10692        4093.00       12524.42     1.61038     1.82380    17.20657     0.19998     0.00000   920.15149   920.15149
    34      698.71985      226.39220    -9     7    -7   0.06895  -0.13605   0.00535  21.74925   0.04058  89.24938         522.00        2764.24     1.23885     2.33164     5.66252     0.52932     0.00000   615.84363   615.84363
    28      454.66470       47.76818    -7     7    -9   0.00254   0.02809   0.00089  19.88921   0.04053 100.53969        4296.00       10867.42     1.39978     1.73851   169.75221     0.17946     0.00000    27.91174    27.91174
    32      971.52240       85.58991   -11     5    -7  -0.35271  -0.29556   0.01529  21.19158   0.03885  97.70635        2997.00        6124.42     1.07532     1.52314   179.51813     0.14932     0.00000   455.03314   455.03314
latticeparameters=   0.54322   0.54489   0.54090  89.94910  90.19690  90.25787
dpsx, dpsy: 179.00000 168.38699
dd, xcent, ycent:      150.57201      540.60303      212.87601
pitch,yaw,roll:  -0.22645   0.61642   0.00000
dev1, dev2, pixdev:   0.01240   0.01215   0.25914
deviatoric strain in crystal reference u1 u2 u3 (*10^3)
   0.40526  -2.25821  -1.71167
  -2.25821   3.47671   0.43477
  -1.71167   0.43477  -3.86835
deviatoric strain in sample reference X Y Z (*10^3)
  -0.26919  -0.82521   0.48121
  -0.82521   4.70417   0.19653
   0.48121   0.19653  -4.42137
deviatoric principal strains (*10^3):   4.83901  -0.33975  -4.48565
deviatoric strain principal axes in sample reference:
  -0.15830   0.98731   0.01273
   0.98013   0.15556   0.12305
  -0.11950  -0.03195   0.99232
deviatoric stress in crystal reference u1 u2 u3 (MPa)
       42.08489     -359.09985     -272.18988
     -359.09985      354.45148       69.13688
     -272.18988       69.13688     -392.54059
deviatoric stress in sample reference X Y Z (MPa)
      -37.62497     -195.78299      -29.59871
     -195.78299      575.46600       24.01440
      -29.59871       24.01440     -533.84521
deviatoric principal stresses (MPa):      633.49512      -93.74711     -535.75220
deviatoric stress principal axes in sample reference:
       -0.28104        0.95932        0.02686
       -0.95814       -0.28207        0.04905
        0.05463       -0.01195        0.99844
total strain in sample reference X Y Z (*10^3)
   1.54958  -0.82521   0.48121
  -0.82521   6.52294   0.19653
   0.48121   0.19653  -2.60260
total principal strains (*10^3):   6.65778   1.47902  -2.66688
total strain principal axes in sample reference:
  -0.15830   0.98731   0.01273
   0.98013   0.15556   0.12305
  -0.11950  -0.03195   0.99232
total stress in crystal reference u1 u2 u3 (MPa)
      575.93011     -359.09985     -272.18988
     -359.09985      888.29669       69.13688
     -272.18988       69.13688      141.30464
total stress in sample reference X Y Z (MPa)
      496.22028     -195.78299      -29.59871
     -195.78299     1109.31116       24.01440
      -29.59871       24.01440        0.00000
total principal stresses (MPa):     1167.34033      440.09811       -1.90696
total stress principal axes in sample reference:
       -0.28104        0.95932        0.02686
       -0.95814       -0.28207        0.04905
        0.05463       -0.01195        0.99844
dilatational strain (*10^-3):        1.81877
hydrostatic stress (MPa):      535.17719
Von Mises stress (MPa):     1022.59204
equivalent strain (*10^-3):        5.39459
equivalent stress (MPa):     1022.59204
maximum resolved shear stress:       11.95201
coordinates of a, b, c in X, Y, Z
   0.44438  -0.20245   0.23848
   0.19254   0.50581   0.06502
  -0.24574   0.03223   0.48103
coordinates of a*, b*, c* in X, Y, Z
   1.50601  -0.67802   0.81480
   0.65599   1.70047   0.22119
  -0.83531   0.10629   1.64672
