SiHyperlaueFinal_00133.tif
number of grains found:       1
grain no:       0     grainlist file index:       1
number of indexed reflections:      32
       x(exp)          y(exp)      h     k     l   ang_dev. xdev(pix) ydev(pix) Ener(keV) 2theta(deg)   chi(deg)intensity  integr    xwidth(pix) ywidth(pix)  tilt(deg)    rfact       pearson  xcentr(pix) ycentr(pix)   strfac  theor_integr  fit_intensity    fit_integr    fit_backg    harm   lin_abs
      392.64209      872.05304    -2     4    -2   0.04100   0.33429  -1.79861  12.47322  53.28273   9.14772   61248.0  124542.8     1.14672     1.91614     1.24783     0.16526     0.00000   392.92685   872.37030            1.7         2167.4        56376.9       140362.0           96.2     1       41.51912
      746.39508      951.33374    -3     3    -1   0.05520  -0.71005  -2.07687  11.61940  50.71792 -13.73472   23841.0   72681.8     1.67508     2.02753   178.46907     0.20740     0.00000   746.69440   951.68292            1.3         1392.1        22527.7        86693.2           96.2     1       51.30677
      991.68787      299.61200    -4     2    -2   0.00711  -0.10682   0.19943   8.25870  85.25528 -27.26554   22942.0   36588.8     1.25187     1.25584    50.11529     0.18850     0.00000   992.04156   299.97659            1.7         1048.5        19815.6        35299.2           96.2     2      140.79015
      546.08820      225.19415    -3     3    -3   0.01972   0.27036   0.46213   8.44881  89.19936  -0.36686   34716.0  129915.8     1.83631     1.88451     9.65355     0.22262     0.00000   546.39417   225.48485            1.2         2623.6        39006.2       152947.7           96.2     4      131.71719
     1026.47498      909.52582    -5     3    -1   0.07098  -1.41554  -2.12988  14.51877  55.44736 -29.42621   28177.0   71324.8     1.58776     1.84400   167.56532     0.22114     0.00000  1026.78015   909.84326            1.0          745.1        24456.5        81134.7           96.2     1       26.36325
      925.02307      683.00775    -6     4    -2   0.03211  -0.57831  -0.82220  16.10807  64.06329 -23.98143   30916.0   82573.8     1.63332     1.94081     8.45713     0.25761     0.00000   925.34839   683.36005            1.2          663.3        25775.0        92580.2           96.2     1       19.32654
      426.66055      666.13800    -3     5    -3   0.05345   0.93265  -0.67865  14.38052  62.74474   7.10010   27483.0  135923.8     1.90996     2.96609   176.22037     0.30819     0.00000   426.90457   666.55164            0.9          465.6        25657.4       164696.8           96.2     1       27.12873
      648.66736      500.21341    -6     6    -4   0.01203   0.23094   0.02143  18.21071  72.04576  -7.22945   18472.0   39357.8     1.08858     1.87362   179.97084     0.19127     0.00000   649.00116   500.77899            0.8          282.7        18154.9        41956.6           96.2     1       13.41349
      668.66711      570.50128    -5     5    -3   0.00975   0.11698  -0.26626  15.66404  68.08964  -8.56361   42928.0   64109.8     1.08441     1.52586   179.99702     0.19134     0.00000   669.00989   570.83295            0.8          273.4        37192.1        69730.4           96.2     1       21.00914
      868.13074      257.28531    -5     3    -3   0.01627  -0.00810   0.53265  10.82623  87.49989 -20.50129   12072.0   35474.8     1.74155     1.93210   102.25824     0.20163     0.00000   868.34839   257.71042            0.9          258.7        11012.7        41987.9           96.2     1       63.33123
      331.59933      270.39160    -4     6    -6   0.01223  -0.23098   0.20777  15.67332  86.20699  13.36361   25315.0   51477.8     1.25772     1.70056   178.14761     0.23816     0.00000   331.86603   270.80246            0.8          212.8        21633.0        52427.3           96.2     1       20.97202
      282.62000      288.50220    -3     5    -5   0.00904  -0.15183   0.19914  12.96839  85.09667  16.34122   29604.0   48961.8     1.20282     1.49472   178.93478     0.20988     0.00000   282.90198   288.81058            0.8          186.5        25225.9        51389.2           96.2     1       36.95820
      258.62787      619.60083    -3     7    -5   0.03440   0.61785  -0.68693  19.10767  65.95982  17.58686   11765.0   20358.8     1.18574     1.44301     3.05252     0.17596     0.00000   258.94110   620.00873            0.6          184.2         9998.1        19384.0           96.2     1       11.63390
      858.90723      567.49567    -7     5    -3   0.01916  -0.25907  -0.57305  18.27603  69.37707 -20.18925   11321.0   26690.8     1.51103     1.68393    68.88231     0.21794     0.00000   859.20007   567.93396            0.6          165.8         9555.7        27550.2           96.2     1       13.27182
      475.07755      454.82065    -6     8    -6   0.01693   0.30691   0.18126  21.98085  74.56053   4.10633     781.0    2916.8     1.46804     1.84129   178.67426     0.10319     0.00000   475.06503   455.06744            0.6          138.5          631.3         1933.5           96.2     1        7.71564
      463.67068      498.15808    -5     7    -5   0.03852   0.73228  -0.11100  19.33180  71.97500   4.81814    7163.0   17603.8     1.09105     1.94932     0.06260     0.29853     0.00000   464.01544   498.39374            0.6          118.9         7094.2        17096.0           96.2     1       11.24010
      721.87097      228.63136    -8     6    -6   0.01311   0.12143   0.37211  18.97578  89.11704 -11.68424    7904.0   16279.8     1.24353     1.56448   177.31071     0.20615     0.00000   722.14880   229.10121            0.6          107.6         6639.3        14635.6           96.2     1       11.87450
      129.38301       39.63170    -3     5    -7   0.02603  -0.72461   0.20906  13.59065  99.87046  25.19391   15163.0   29384.8     1.21640     1.68623     6.03205     0.21374     0.00000   129.73863    39.93235            0.6          107.3        12908.5        30000.7           96.2     1       32.12412
      438.70239       20.96273    -6     6    -8   0.02260   0.49412   0.35086  17.11049 102.17863   6.75181   11724.0   23851.8     1.17712     1.72046   177.66422     0.21255     0.00000   439.07721    21.31934            0.6          103.6        10077.2        23124.4           96.2     1       16.14283
     1012.71991      601.56012    -9     5    -3   0.03343  -0.72310  -0.68960  21.62852  68.95230 -28.53743    1077.0    3036.8     1.34797     1.58045   168.54102     0.10300     0.00000  1013.00201   602.03650            0.5          103.4          813.0         1962.6           96.2     1        8.08687
      753.59979      232.68568    -7     5    -5   0.02105  -0.27473   0.54490  16.22296  88.88825 -13.65934   19526.0   28383.8     1.14816     1.25512   179.31905     0.18504     0.00000   753.89508   233.10248            0.6           86.7        17086.7        27900.6           96.2     1       18.92089
      145.61453      355.23621    -3     7    -7   0.01068   0.21592   0.18701  18.12388  81.32522  24.16670    6498.0   16557.8     1.24611     1.88471   179.75310     0.17245     0.00000   145.93401   355.85236            0.5           85.7         6096.1        16222.5           96.2     1       13.60503
      364.76965      259.68616    -5     7    -7   0.01153   0.21029   0.19611  18.41406  86.88333  11.30274    8428.0   14431.8     1.19930     1.34210     0.67290     0.17684     0.00000   365.12036   260.10938            0.5           64.0         7191.0        13115.0           96.2     1       12.97907
      784.14526       52.49397   -10     6    -8   0.00854   0.17600   0.15755  21.05383 100.14886 -15.39781     760.0    3484.8     1.64634     1.91603    76.68249     0.13252     0.00000   784.05872    53.09916            0.5           61.2          585.8         2093.6           96.2     1        8.74784
      300.68298       93.01287    -6     8   -10   0.00500  -0.07771   0.12430  21.50103  97.34170  15.36368     761.0    2401.8     1.15487     1.82476   176.46881     0.09971     0.00000   300.99353    93.08850            0.5           61.1          575.9         1375.0           96.2     1        8.22734
      919.95935      273.22888    -9     5    -5   0.00841  -0.04136   0.27540  19.04786  86.63062 -23.42319    2901.0   10100.8     1.70075     1.89442    19.33636     0.17400     0.00000   920.14911   273.97302            0.4           58.4         2608.4         9522.5           96.2     1       11.74216
       27.56737      162.46091    -3     7    -9   0.00883  -0.15430   0.25087  18.62905  92.52852  30.33634    3607.0    8856.8     1.38949     1.66443   169.50594     0.16765     0.00000    27.92578   162.95638            0.4           50.8         2899.7         7598.6           96.2     1       12.54037
      822.88220       31.34718    -9     5    -7   0.01659   0.43653   0.05882  18.37777 101.32412 -17.70479    3321.0   10079.8     1.58962     1.79228    79.70129     0.19971     0.00000   823.12836    32.05633            0.4           42.9         2613.9         8438.2           96.2     1       13.05517
      261.68097       78.66780    -5     7    -9   0.00670  -0.16903   0.03797  18.81859  98.10381  17.71071    4705.0    8282.8     1.12137     1.33503   178.83047     0.14557     0.00000   262.02328    79.11924            0.4           42.7         4016.6         6813.4           96.2     1       12.17022
      698.75439      226.30254    -9     7    -7   0.01110   0.14451   0.27843  21.74500  89.24637 -10.22752     437.0    2016.8     1.34088     2.01349    10.27707     0.10109     0.00000   699.00903   227.01974            0.4           36.7          298.6          913.6           96.2     1        7.96144
      454.66568       47.76371    -7     7    -9   0.00593   0.10887   0.12452  19.86099 100.54172   5.70466    2508.0    5499.8     1.07628     1.48422     0.28718     0.15363     0.00000   454.99942    48.17197            0.4           35.2         2073.2         3752.7           96.2     1       10.38012
      971.56915       85.57402   -11     5    -7   0.00513  -0.13523  -0.06338  21.17421  97.68913 -26.07436     565.0    2329.8     1.39065     1.83576    13.05194     0.10724     0.00000   971.97803    86.05561            0.3           31.5          381.0         1102.0           96.2     1        8.60333
 dev1, dev2, pixdev=    0.0327800    0.0262600    0.0207000
matrix X  Y  Z -> h  k  l
   0.44379  -0.20020   0.24047
   0.19303   0.50360   0.06302
  -0.24626   0.03397   0.48276
matrix h  k  l -> X  Y  Z
   1.50513   0.65468  -0.83520
  -0.67898   1.70800   0.11523
   0.81556   0.21375   1.63730
Number of missing reflections:      11
x(exp)   y(exp)   h  k  l   energy(keV)   theta(deg)    strfac    theor_integr
      546.35858      225.65628    -4     4    -4  11.26807  89.16937        1.26000      452.52499
      546.35858      225.65628    -5     5    -5  14.08508  89.16937        0.67400      129.38400
      991.58105      299.81143    -8     4    -4  16.51925  85.24347        0.79700      189.47099
      546.35858      225.65628    -7     7    -7  19.71912  89.16937        0.41100       48.06600
      200.38690      748.63086    -2     6    -4  17.06947  60.06812        1.15300      765.57001
       62.30124      408.26297    -1     3    -3   7.85422  78.63272        1.28600      552.78601
        1.71337       14.93040    -2     4    -6  11.10783 100.55412        1.15300      363.42200
        7.14058      891.71124    -1     7    -5  21.00911  56.14844        0.67400      304.39099
      204.78076      323.68182    -4     8    -8  20.66568  83.04900        0.58900      107.12900
      634.55798      454.14359    -7     7    -5  20.85720  74.75603        0.46800       79.91500
      616.95605       49.10773    -9     7    -9  21.55715 100.58116        0.32400       28.72500
Rfactor:      0.60663003
Rotangle(deg):       35.22516
Rodrigues vector:       -0.01472        0.24667        0.19929       35.22516
Quaternion:        0.95312       -0.01403        0.23511        0.18995
Euler angles:        4.02567       24.39481       23.50725
orsnr, orsirxy, orsirxz, orsiryz:  27.24568 -24.28058 -27.02642   4.02567
 Rotation matrix, unit cell to sample:
   0.81729   0.35549  -0.45351
  -0.36869   0.92745   0.06257
   0.44285   0.11607   0.88905
 Rotation matrix, sample to unit cell:
   0.81729  -0.36869   0.44285
   0.35549   0.92745   0.11607
  -0.45351   0.06257   0.88905
Sum of integrated intensities:  1007541.87500
Average integrated intensity per peak:    33584.73047
scale:    0.0106000
depth:    -0.835570
Unindexed reflections:       0
Xstage position:      6000.00
Ystage position:      11280.0
X map position:     133
Y map position:       1
Izero:       2619.0000
Channel A:      0.00000000
Channel B:      0.00000000
Channel C:      0.00000000
Channel D:      0.00000000
Channel E:      0.00000000
Exposure:      2.50000
Average intensity of the image :       105.32150
Average background of the image:       103.67776
