\\vmware-host\Shared Folders\Desktop\SiHyperlaueFinal_shielded_results\results_00133.STR
Number of grains:       1
Grain no:       1   Grainlist file index:       1    Number of peaks:      32
no   x(exp)  y(exp)  h  k  l xdev  ydev  angdev  energy  dspace  twotheta  intens   integr  xwidth   ywidth  tilt  rfactor   pearson  xcentroid  ycentroid
     4      392.64209      872.05304    -2     4    -2  -0.29335  -0.13228   0.01716  12.44977   0.11103  53.28957       34716.00      129915.77     1.83631     1.88451     9.65355     0.22262     0.00000   546.39417   546.39417
     6      746.39508      951.33374    -3     3    -1  -0.38651   0.48606   0.02386  11.59455   0.12489  50.69635       30916.00       82573.77     1.63332     1.94081     8.45713     0.25761     0.00000   925.34839   925.34839
    13      991.68787      299.61200    -4     2    -2   0.14533  -0.09752   0.00625   8.25860   0.11083  85.26131       11765.00       20358.76     1.18574     1.44301     3.05252     0.17596     0.00000   258.94110   258.94110
     3      546.08820      225.19415    -3     3    -3   0.07682   0.15268   0.00616   8.45338   0.10445  89.18945       22942.00       36588.76     1.25187     1.25584    50.11529     0.18850     0.00000   992.04156   992.04156
     7     1026.47498      909.52582    -5     3    -1  -0.26534   0.23606   0.01317  14.49356   0.09196  55.43465       27483.00      135923.77     1.90996     2.96609   176.22037     0.30819     0.00000   426.90457   426.90457
     5      925.02307      683.00775    -6     4    -2   0.09862   0.03396   0.00460  16.08325   0.07267  64.06265       28177.00       71324.77     1.58776     1.84400   167.56532     0.22114     0.00000  1026.78015  1026.78015
     2      426.66055      666.13800    -3     5    -3   0.45479  -0.10280   0.02505  14.36171   0.08291  62.74880       23841.00       72681.77     1.67508     2.02753   178.46907     0.20740     0.00000   746.69440   746.69440
    12      648.66736      500.21341    -6     6    -4   0.18310   0.04787   0.00962  18.19273   0.05794  72.04350       29604.00       48961.76     1.20282     1.49472   178.93478     0.20988     0.00000   282.90198   282.90198
     8      668.66711      570.50128    -5     5    -3   0.12754  -0.01687   0.00679  15.64297   0.07079  68.09108       18472.00       39357.76     1.08858     1.87362   179.97084     0.19127     0.00000   649.00116   649.00116
    14      868.13074      257.28531    -5     3    -3   0.07642   0.18648   0.00651  10.82877   0.08280  87.48862       11321.00       26690.76     1.51103     1.68393    68.88231     0.21794     0.00000   859.20007   859.20007
     9      331.59933      270.39160    -4     6    -6  -0.48233  -0.02691   0.02180  15.68413   0.05784  86.20883       42928.00       64109.76     1.08441     1.52586   179.99702     0.19134     0.00000   669.00989   669.00989
    10      282.62000      288.50220    -3     5    -5  -0.40203  -0.02202   0.01784  12.97808   0.07064  85.09838       12072.00       35474.76     1.74155     1.93210   102.25824     0.20163     0.00000   868.34839   868.34839
    19      258.62787      619.60083    -3     7    -5  -0.01531  -0.34038   0.00898  19.09398   0.05963  65.97768       11724.00       23851.76     1.17712     1.72046   177.66422     0.21255     0.00000   439.07721   439.07721
    17      858.90723      567.49567    -7     5    -3   0.16235  -0.26298   0.01077  18.24988   0.05968  69.39244        7904.00       16279.76     1.24353     1.56448   177.31071     0.20615     0.00000   722.14880   722.14880
    31      475.07755      454.82065    -6     8    -6  -0.01472   0.10610   0.00329  21.97084   0.04659  74.55410        2508.00        5499.76     1.07628     1.48422     0.28718     0.15363     0.00000   454.99942   454.99942
    20      463.67068      498.15808    -5     7    -5   0.37979  -0.08876   0.02005  19.31727   0.05461  71.97987        1077.00        3036.76     1.34797     1.58045   168.54102     0.10300     0.00000  1013.00201  1013.00201
    22      721.87097      228.63136    -8     6    -6   0.05120   0.02015   0.00238  18.98098   0.04655  89.11580        6498.00       16557.76     1.24611     1.88471   179.75310     0.17245     0.00000   145.93401   145.93401
    15      129.38301       39.63170    -3     5    -7  -0.19277   0.26753   0.01043  13.62153   0.05947  99.85421         781.00        2916.76     1.46804     1.84129   178.67426     0.10319     0.00000   475.06503   475.06503
    18      438.70239       20.96273    -6     6    -8   0.42725   0.32110   0.01981  17.14069   0.04649 102.15972       15163.00       29384.76     1.21640     1.68623     6.03205     0.21374     0.00000   129.73863   129.73863
    30     1012.71991      601.56012    -9     5    -3   0.04714  -0.17253   0.00492  21.60215   0.05069  68.96139         437.00        2016.76     1.34088     2.01349    10.27707     0.10109     0.00000   699.00903   699.00903
    16      753.59979      232.68568    -7     5    -5  -0.31577   0.19024   0.01513  16.22852   0.05456  88.87587        7163.00       17603.76     1.09105     1.94932     0.06260     0.29853     0.00000   464.01544   464.01544
    21      145.61453      355.23621    -3     7    -7  -0.00295  -0.01677   0.00051  18.14025   0.05245  81.32621       19526.00       28383.76     1.14816     1.25512   179.31905     0.18504     0.00000   753.89508   753.89508
    23      364.76965      259.68616    -5     7    -7  -0.03878  -0.04928   0.00238  18.42581   0.04893  86.88648        8428.00       14431.76     1.19930     1.34210     0.67290     0.17684     0.00000   365.12036   365.12036
    29      784.14526       52.49397   -10     6    -8  -0.03985  -0.08243   0.00301  21.07647   0.03835 100.15398        4705.00        8282.76     1.12137     1.33503   178.83047     0.14557     0.00000   262.02328   262.02328
    32      300.68298       93.01287    -6     8   -10  -0.05811   0.02876   0.00251  21.53533   0.03834  97.33976         565.00        2329.76     1.39065     1.83576    13.05194     0.10724     0.00000   971.97803   971.97803
    24      919.95935      273.22888    -9     5    -5   0.10937  -0.05578   0.00470  19.04901   0.04744  86.63418         760.00        3484.76     1.64634     1.91603    76.68249     0.13252     0.00000   784.05872   784.05872
    26       27.56737      162.46091    -3     7    -9   0.37431   0.06962   0.01271  18.66570   0.04597  92.52531        2901.00       10100.76     1.70075     1.89442    19.33636     0.17400     0.00000   920.14911   920.14911
    25      822.88220       31.34718    -9     5    -7   0.18363  -0.15640   0.00812  18.39868   0.04356 101.33292         761.00        2401.76     1.15487     1.82476   176.46881     0.09971     0.00000   300.99353   300.99353
    27      261.68097       78.66780    -5     7    -9  -0.05915  -0.01841   0.00235  18.85094   0.04354  98.10474        3607.00        8856.76     1.38949     1.66443   169.50594     0.16765     0.00000    27.92578    27.92578
    35      698.75439      226.30254    -9     7    -7   0.05417  -0.07040   0.00332  21.75034   0.04057  89.25094           0.00           0.00     0.00000     0.00000     0.00000     0.00000     0.00000     0.00000     0.00000
    28      454.66568       47.76371    -7     7    -9   0.00595   0.03227   0.00104  19.89074   0.04053 100.53971        3321.00       10079.76     1.58962     1.79228    79.70129     0.19971     0.00000   823.12836   823.12836
    33      971.56915       85.57402   -11     5    -7  -0.32924  -0.37756   0.01620  21.19106   0.03885  97.71179         615.00        2440.83     1.37278     1.71477    15.85652     0.11131     0.00000   971.99982   971.99982
latticeparameters=   0.54329   0.54480   0.54093  89.94939  90.19164  90.25810
dpsx, dpsy: 179.00000 168.38699
dd, xcent, ycent:      150.57201      540.60303      212.87601
pitch,yaw,roll:  -0.22645   0.61642   0.00000
dev1, dev2, pixdev:   0.01227   0.01206   0.24683
deviatoric strain in crystal reference u1 u2 u3 (*10^3)
   0.52707  -2.25983  -1.66602
  -2.25983   3.30537   0.43250
  -1.66602   0.43250  -3.81954
deviatoric strain in sample reference X Y Z (*10^3)
  -0.23334  -0.91111   0.52135
  -0.91111   4.57296   0.14230
   0.52135   0.14230  -4.32672
deviatoric principal strains (*10^3):   4.74011  -0.32776  -4.39945
deviatoric strain principal axes in sample reference:
  -0.17968   0.98371   0.00511
   0.97505   0.17740   0.13343
  -0.13035  -0.02895   0.99104
deviatoric stress in crystal reference u1 u2 u3 (MPa)
       54.42777     -359.35782     -264.93121
     -359.35782      336.98141       68.77685
     -264.93121       68.77685     -387.62198
deviatoric stress in sample reference X Y Z (MPa)
      -35.93167     -203.98712      -24.17169
     -203.98712      561.98474       17.51709
      -24.17169       17.51709     -522.26587
deviatoric principal stresses (MPa):      625.44397      -98.13778     -523.51898
deviatoric stress principal axes in sample reference:
       -0.29536        0.95516        0.02080
       -0.95426       -0.29600        0.04216
        0.04643       -0.00740        0.99889
total strain in sample reference X Y Z (*10^3)
   1.54598  -0.91111   0.52135
  -0.91111   6.35228   0.14230
   0.52135   0.14230  -2.54740
total principal strains (*10^3):   6.51943   1.45156  -2.62013
total strain principal axes in sample reference:
  -0.17968   0.98371   0.00511
   0.97505   0.17740   0.13343
  -0.13035  -0.02895   0.99104
total stress in crystal reference u1 u2 u3 (MPa)
      576.69366     -359.35782     -264.93121
     -359.35782      859.24731       68.77685
     -264.93121       68.77685      134.64391
total stress in sample reference X Y Z (MPa)
      486.33423     -203.98712      -24.17169
     -203.98712     1084.25061       17.51709
      -24.17169       17.51709        0.00000
total principal stresses (MPa):     1147.70984      424.12811       -1.25311
total stress principal axes in sample reference:
       -0.29536        0.95516        0.02080
       -0.95426       -0.29600        0.04216
        0.04643       -0.00740        0.99889
dilatational strain (*10^-3):        1.77932
hydrostatic stress (MPa):      523.52832
Von Mises stress (MPa):     1006.14008
equivalent strain (*10^-3):        5.28716
equivalent stress (MPa):     1006.14008
maximum resolved shear stress:       20.96469
coordinates of a, b, c in X, Y, Z
   0.44450  -0.20241   0.23858
   0.19246   0.50583   0.06496
  -0.24577   0.03224   0.48111
coordinates of a*, b*, c* in X, Y, Z
   1.50615  -0.67771   0.81480
   0.65594   1.70108   0.22107
  -0.83546   0.10640   1.64679
