SiHyperlaueFinal_00130.tif
number of grains found:       1
grain no:       0     grainlist file index:       1
number of indexed reflections:      32
       x(exp)          y(exp)      h     k     l   ang_dev. xdev(pix) ydev(pix) Ener(keV) 2theta(deg)   chi(deg)intensity  integr    xwidth(pix) ywidth(pix)  tilt(deg)    rfact       pearson  xcentr(pix) ycentr(pix)   strfac  theor_integr  fit_intensity    fit_integr    fit_backg    harm   lin_abs
      392.64191      872.04541    -2     4    -2   0.04074   0.33325  -1.78592  12.47315  53.28305   9.14774   63736.0  128319.4     1.14666     1.90832     1.27953     0.16668     0.00000   392.92459   872.36755            1.7         2167.4        58305.1       144563.5           96.2     1       41.51982
      746.39972      951.33472    -3     3    -1   0.05539  -0.71624  -2.07334  11.61940  50.71792 -13.73501   25060.0   75766.4     1.66735     2.02337   178.48479     0.20864     0.00000   746.69666   951.67969            1.3         1392.1        23643.8        90382.7           96.2     1       51.30677
      991.68817      299.61530    -4     2    -2   0.00716  -0.10971   0.19873   8.25871  85.25509 -27.26556   23191.0   36359.4     1.24470     1.24508    78.52263     0.18559     0.00000   992.03949   299.99747            1.7         1048.5        20076.3        35254.1           96.2     2      140.78954
      546.08508      225.18294    -3     3    -3   0.02013   0.27200   0.47640   8.44875  89.20009  -0.36665   35353.0  130486.4     1.83474     1.88318    12.92454     0.22300     0.00000   546.38690   225.47903            1.2         2623.6        39201.1       153472.6           96.2     4      131.71980
     1026.45764      909.49780    -5     3    -1   0.07014  -1.40040  -2.09868  14.51856  55.44821 -29.42533   29391.0   73484.4     1.68762     1.79409   126.80029     0.20090     0.00000  1026.78149   909.84052            1.0          745.1        23952.5        82173.7           96.2     1       26.36436
      925.01611      683.00336    -6     4    -2   0.03184  -0.57339  -0.81482  16.10804  64.06344 -23.98105   31627.0   83647.4     1.58320     1.98090   161.74146     0.25704     0.00000   925.35492   683.35925            1.2          663.3        26195.4        93086.9           96.2     1       19.32665
      426.65884      666.14081    -3     5    -3   0.05346   0.93312  -0.67741  14.38055  62.74460   7.10021   27941.0  137476.4     1.90980     2.95938   176.21974     0.30815     0.00000   426.90314   666.55304            0.9          465.6        25964.0       166274.4           96.2     1       27.12858
      648.66742      500.21805    -6     6    -4   0.01195   0.22934   0.02001  18.21077  72.04548  -7.22946   18459.0   39027.4     1.08972     1.87467     0.02628     0.18744     0.00000   648.99719   500.78403            0.8          282.7        18069.7        41826.8           96.2     1       13.41337
      668.66693      570.50012    -5     5    -3   0.00960   0.11562  -0.26176  15.66403  68.08971  -8.56360   43167.0   64385.4     1.08535     1.52864   179.92989     0.18910     0.00000   669.00275   570.82611            0.8          273.4        37395.2        70300.3           96.2     1       21.00920
      868.11835      257.30286    -5     3    -3   0.01581   0.00207   0.51786  10.82633  87.49880 -20.50060   12353.0   36140.4     1.79229     1.86018   150.52798     0.19865     0.00000   868.34509   257.70581            0.9          258.7        11208.6        42342.7           96.2     1       63.32936
      331.59976      270.39236    -4     6    -6   0.01233  -0.23258   0.21027  15.67333  86.20694  13.36358   25231.0   51292.4     1.25567     1.69987   178.43565     0.23808     0.00000   331.87259   270.80191            0.8          212.8        21582.5        52198.5           96.2     1       20.97199
      282.61847      288.50671    -3     5    -5   0.00901  -0.15142   0.19795  12.96842  85.09639  16.34131   30003.0   49281.4     1.20721     1.48346   179.17427     0.20915     0.00000   282.90320   288.81052            0.8          186.5        25573.4        51893.4           96.2     1       36.95789
      258.62576      619.59845    -3     7    -5   0.03437   0.61882  -0.68047  19.10763  65.95996  17.58699   11894.0   20615.4     1.19085     1.44351     3.45853     0.17756     0.00000   258.93390   619.99872            0.6          184.2        10102.0        19676.4           96.2     1       11.63396
      858.90271      567.49896    -7     5    -3   0.01910  -0.25649  -0.57339  18.27608  69.37686 -20.18899   11380.0   26712.4     1.50633     1.66926    73.51824     0.22112     0.00000   859.19238   567.94275            0.6          165.8         9595.8        27339.4           96.2     1       13.27172
      475.06506      454.82690    -6     8    -6   0.01745   0.31809   0.17838  21.98094  74.56015   4.10713     822.0    2946.4     1.49846     1.83556   177.80814     0.09981     0.00000   475.07437   455.04483            0.6          138.5          667.4         2080.1           96.2     1        7.71555
      463.67059      498.15610    -5     7    -5   0.03845   0.73108  -0.10553  19.33177  71.97511   4.81814    7206.0   17645.4     1.09039     1.94531   179.90659     0.29938     0.00000   464.00552   498.37823            0.6          118.9         7128.2        17132.1           96.2     1       11.24015
      721.88165      228.63411    -8     6    -6   0.01289   0.10891   0.37227  18.97580  89.11687 -11.68491    7765.0   16249.4     1.24158     1.58631   177.38618     0.20669     0.00000   722.15875   229.11708            0.6          107.6         6522.4        14555.7           96.2     1       11.87445
      129.38431       39.62986    -3     5    -7   0.02614  -0.72677   0.21435  13.59064  99.87057  25.19384   15063.0   29180.4     1.21625     1.68494     5.71538     0.21195     0.00000   129.74295    39.93348            0.6          107.3        12828.1        29787.7           96.2     1       32.12422
      438.70206       20.97616    -6     6    -8   0.02242   0.49311   0.34070  17.11059 102.17780   6.75182   11677.0   24194.4     1.17780     1.74152   177.61478     0.21228     0.00000   439.06921    21.32584            0.6          103.6        10078.2        23423.3           96.2     1       16.14256
     1012.71185      601.51227    -9     5    -3   0.03269  -0.71741  -0.63911  21.62789  68.95462 -28.53699    1054.0    2994.4     1.33673     1.65060   171.45857     0.09980     0.00000  1013.00012   602.02911            0.5          103.4          806.0         2015.0           96.2     1        8.08756
      753.60120      232.68869    -7     5    -5   0.02113  -0.27806   0.54477  16.22298  88.88806 -13.65943   19748.0   28480.4     1.15620     1.25176   179.02005     0.18044     0.00000   753.89990   233.10068            0.6           86.7        17268.5        28318.6           96.2     1       18.92079
      145.61765      355.23615    -3     7    -7   0.01059   0.21178   0.19059  18.12389  81.32521  24.16653    6428.0   16229.4     1.23802     1.88250   179.04951     0.17141     0.00000   145.94237   355.84766            0.5           85.7         6029.7        15923.1           96.2     1       13.60503
      364.76013      259.68607    -5     7    -7   0.01191   0.21861   0.19942  18.41406  86.88334  11.30334    8414.0   14352.4     1.19801     1.31999   179.63718     0.17916     0.00000   365.09235   260.13358            0.5           64.0         7195.9        12893.8           96.2     1       12.97907
      784.15778       52.55418   -10     6    -8   0.00711   0.16131   0.10040  21.05440 100.14516 -15.39861     778.0    3504.4     1.52406     1.82305   171.13252     0.13259     0.00000   784.09552    53.10000            0.5           61.2          631.1         1986.8           96.2     1        8.74715
      300.68219       93.02142    -6     8   -10   0.00488  -0.07804   0.11903  21.50112  97.34117  15.36372     736.0    2367.4     1.13042     1.84313   179.09196     0.09656     0.00000   300.98923    93.11932            0.5           61.1          557.4         1316.0           96.2     1        8.22725
      919.96942      273.23724    -9     5    -5   0.00836  -0.05380   0.26974  19.04795  86.63014 -23.42375    2976.0   10139.4     1.69649     1.90325    68.05688     0.16755     0.00000   920.14777   273.96939            0.4           58.4         2628.7         9617.5           96.2     1       11.74201
       27.58147      162.47945    -3     7    -9   0.00881  -0.16922   0.23581  18.62921  92.52751  30.33565    3668.0    8797.4     1.36999     1.64540   168.37582     0.16539     0.00000    27.92853   162.98302            0.4           50.8         2943.4         7518.0           96.2     1       12.54006
      822.86816       31.35972    -9     5    -7   0.01698   0.44826   0.04937  18.37787 101.32342 -17.70396    3379.0   10008.4     1.58864     1.78020    36.03238     0.20369     0.00000   823.12866    32.03980            0.4           42.9         2656.8         8513.6           96.2     1       13.05497
      261.68103       78.66342    -5     7    -9   0.00680  -0.17015   0.04567  18.81855  98.10408  17.71071    4627.0    8155.4     1.11830     1.34323   176.80058     0.14616     0.00000   262.00726    79.09702            0.4           42.7         3942.5         6710.4           96.2     1       12.17029
      698.75140      226.32591    -9     7    -7   0.01061   0.14572   0.25799  21.74529  89.24487 -10.22735     445.0    2164.4     1.28798     2.01959     2.06418     0.10601     0.00000   699.03864   227.04697            0.4           36.7          304.1          896.3           96.2     1        7.96113
      454.66476       47.76488    -7     7    -9   0.00596   0.10842   0.12658  19.86100 100.54165   5.70472    2470.0    5437.4     1.07688     1.51564   179.93314     0.15040     0.00000   455.00082    48.18229            0.4           35.2         2030.9         3756.0           96.2     1       10.38011
      971.57050       85.54833   -11     5    -7   0.00499  -0.13937  -0.03477  21.17397  97.69060 -26.07441     580.0    2320.4     1.33160     1.77803    11.44680     0.10918     0.00000   971.99048    86.06867            0.3           31.5          395.8         1061.9           96.2     1        8.60361
 dev1, dev2, pixdev=    0.0325900    0.0261400    0.0206000
matrix X  Y  Z -> h  k  l
   0.44379  -0.20020   0.24047
   0.19303   0.50360   0.06302
  -0.24626   0.03397   0.48276
matrix h  k  l -> X  Y  Z
   1.50513   0.65468  -0.83520
  -0.67898   1.70800   0.11523
   0.81556   0.21375   1.63730
Number of missing reflections:      11
x(exp)   y(exp)   h  k  l   energy(keV)   theta(deg)    strfac    theor_integr
      546.35706      225.65935    -4     4    -4  11.26809  89.16917        1.26000      452.52600
      546.35706      225.65935    -5     5    -5  14.08511  89.16917        0.67400      129.38400
      991.57843      299.81403    -8     4    -4  16.51927  85.24332        0.79700      189.47099
      546.35706      225.65935    -7     7    -7  19.71915  89.16917        0.41100       48.06700
      200.38576      748.63550    -2     6    -4  17.06952  60.06791        1.15300      765.57599
       62.30026      408.26666    -1     3    -3   7.85424  78.63252        1.28600      552.78900
        1.71268       14.93397    -2     4    -6  11.10785 100.55392        1.15300      363.42200
        7.13942      891.71667    -1     7    -5  21.00918  56.14825        0.67400      304.39301
      204.77971      323.68524    -4     8    -8  20.66572  83.04879        0.58900      107.12900
      634.55646      454.14676    -7     7    -5  20.85724  74.75583        0.46800       79.91500
      616.95435       49.11087    -9     7    -9  21.55718 100.58096        0.32400       28.72500
Rfactor:      0.60126001
Rotangle(deg):       35.22523
Rodrigues vector:       -0.01472        0.24667        0.19929       35.22523
Quaternion:        0.95312       -0.01403        0.23511        0.18995
Euler angles:        4.02561       24.39483       23.50733
orsnr, orsirxy, orsirxz, orsiryz:  27.24568 -24.28071 -27.02644   4.02561
 Rotation matrix, unit cell to sample:
   0.81728   0.35549  -0.45351
  -0.36869   0.92745   0.06257
   0.44285   0.11607   0.88905
 Rotation matrix, sample to unit cell:
   0.81728  -0.36869   0.44285
   0.35549   0.92745   0.11607
  -0.45351   0.06257   0.88905
Sum of integrated intensities:  1018521.56250
Average integrated intensity per peak:    33950.71875
scale:    0.0105100
depth:    -0.835820
Unindexed reflections:       0
Xstage position:      6000.00
Ystage position:      11160.0
X map position:     130
Y map position:       1
Izero:       2645.0000
Channel A:      0.00000000
Channel B:      0.00000000
Channel C:      0.00000000
Channel D:      0.00000000
Channel E:      0.00000000
Exposure:      2.50000
Average intensity of the image :       105.36273
Average background of the image:       103.69880
