\\vmware-host\Shared Folders\Desktop\SiHyperlaueFinal_shielded_results\results_00140.STR
Number of grains:       1
Grain no:       1   Grainlist file index:       1    Number of peaks:      32
no   x(exp)  y(exp)  h  k  l xdev  ydev  angdev  energy  dspace  twotheta  intens   integr  xwidth   ywidth  tilt  rfactor   pearson  xcentroid  ycentroid
     4      392.64072      872.05750    -2     4    -2  -0.29385  -0.13022   0.01718  12.44979   0.11104  53.28931       34246.00      126856.23     1.83501     1.88387     3.16774     0.22359     0.00000   546.38342   546.38342
     7      746.41064      951.33655    -3     3    -1  -0.40199   0.46866   0.02452  11.59436   0.12489  50.69691       26303.00      132622.23     1.90963     2.97414   176.50981     0.30843     0.00000   426.90598   426.90598
    13      991.68872      299.60806    -4     2    -2   0.15120  -0.10975   0.00662   8.25851   0.11083  85.26226       11663.00       20119.23     1.19101     1.42740     3.30167     0.17676     0.00000   258.94128   258.94128
     3      546.08636      225.18661    -3     3    -3   0.07960   0.15620   0.00633   8.45333   0.10445  89.18971       22708.00       36558.23     1.24842     1.26951     7.60699     0.19115     0.00000   992.04376   992.04376
     6     1026.46423      909.48511    -5     3    -1  -0.24922   0.25128   0.01264  14.49322   0.09196  55.43571       29480.00       79895.23     1.64038     1.94046   138.42159     0.22857     0.00000   925.35266   925.35266
     5      925.03082      683.00519    -6     4    -2   0.09458   0.01815   0.00439  16.08297   0.07267  64.06357       26185.00       67148.23     1.70317     1.79671    80.49897     0.20350     0.00000  1026.78870  1026.78870
     2      426.66248      666.12738    -3     5    -3   0.45156  -0.08975   0.02485  14.36168   0.08291  62.74868       21628.00       65333.23     1.65449     2.04424     0.00000     0.20521     0.00000   746.71259   746.71259
    12      648.66705      500.21115    -6     6    -4   0.18371   0.04288   0.00964  18.19256   0.05794  72.04393       29044.00       48332.23     1.20796     1.50522   178.90446     0.21049     0.00000   282.90149   282.90149
     8      668.66718      570.49048    -5     5    -3   0.12769  -0.01427   0.00679  15.64281   0.07079  68.09154       18228.00       39081.23     1.09031     1.87579     0.00000     0.19202     0.00000   649.00458   649.00458
    14      868.13629      257.27411    -5     3    -3   0.07528   0.18470   0.00644  10.82866   0.08280  87.48942       11192.00       26485.23     1.50884     1.69398    68.73924     0.21676     0.00000   859.20642   859.20642
     9      331.60150      270.39456    -4     6    -6  -0.48387  -0.02739   0.02187  15.68411   0.05784  86.20867       41666.00       62933.23     1.08486     1.54736   179.96335     0.19120     0.00000   669.00531   669.00531
    10      282.61838      288.49585    -3     5    -5  -0.39962  -0.01164   0.01772  12.97807   0.07064  85.09813       11608.00       34563.23     1.75388     1.92953    16.69597     0.19956     0.00000   868.33423   868.33423
    19      258.62564      619.60455    -3     7    -5  -0.01365  -0.33528   0.00883  19.09405   0.05963  65.97722       11915.00       24489.23     1.17178     1.72461   177.59973     0.21839     0.00000   439.08240   439.08240
    17      858.91016      567.49402    -7     5    -3   0.16227  -0.27623   0.01101  18.24961   0.05968  69.39326        7850.00       16286.23     1.24581     1.57427   177.80260     0.20585     0.00000   722.15814   722.15814
    31      475.06757      454.84036    -6     8    -6  -0.00520   0.08545   0.00260  21.97075   0.04659  74.55415        2497.00        5535.23     1.08403     1.49741   177.53348     0.15252     0.00000   454.99844   454.99844
    20      463.67090      498.15738    -5     7    -5   0.37891  -0.08836   0.02000  19.31720   0.05461  71.97988        1089.00        3141.23     1.36230     1.64665   169.33475     0.10393     0.00000  1012.99866  1012.99866
    22      721.87531      228.63075    -8     6    -6   0.04925   0.01174   0.00223  18.98083   0.04655  89.11638        6482.00       16287.23     1.23933     1.88183   179.17821     0.17150     0.00000   145.92738   145.92738
    15      129.38390       39.63154    -3     5    -7  -0.18991   0.27348   0.01050  13.62152   0.05947  99.85389         806.00        2963.23     1.53101     1.80874   177.60477     0.10391     0.00000   475.05695   475.05695
    18      438.70050       20.96552    -6     6    -8   0.43115   0.31645   0.01987  17.14063   0.04649 102.15984       14742.00       28494.23     1.21678     1.68539     5.96348     0.21084     0.00000   129.73196   129.73196
    30     1012.72095      601.52582    -9     5    -3   0.05199  -0.15784   0.00469  21.60178   0.05069  68.96243         416.00        2101.23     1.30613     2.05347     4.38958     0.09735     0.00000   699.05029   699.05029
    16      753.60260      232.68770    -7     5    -5  -0.31581   0.17833   0.01499  16.22838   0.05456  88.87650        7090.00       17432.23     1.09262     1.95020     0.01351     0.29762     0.00000   464.01978   464.01978
    21      145.61575      355.24261    -3     7    -7  -0.00253  -0.01469   0.00045  18.14029   0.05245  81.32571       19514.00       28145.23     1.15459     1.24839   179.25851     0.18077     0.00000   753.89697   753.89697
    23      364.76788      259.68674    -5     7    -7  -0.03644  -0.04842   0.00229  18.42578   0.04893  86.88639        8354.00       14338.23     1.20112     1.33749     2.65113     0.17814     0.00000   365.11905   365.11905
    29      784.15686       52.55459   -10     6    -8  -0.04712  -0.15362   0.00510  21.07635   0.03835 100.15461        4796.00        8351.23     1.11913     1.32268   176.34587     0.14613     0.00000   262.00180   262.00180
    32      300.68216       93.01773    -6     8   -10  -0.05542   0.02594   0.00238  21.53530   0.03834  97.33964         589.00        2355.23     1.32902     1.75976    11.89024     0.10962     0.00000   971.99243   971.99243
    25      919.97437      273.23087    -9     5    -5   0.09967  -0.07210   0.00455  19.04881   0.04744  86.63505         729.00        2420.23     1.11952     1.79239   175.56789     0.10457     0.00000   301.00598   301.00598
    26       27.58563      162.49283    -3     7    -9   0.36043   0.04678   0.01217  18.66572   0.04597  92.52480        2874.00       10075.23     1.78179     1.84851    45.11577     0.17067     0.00000   920.14508   920.14508
    24      822.89246       31.33828    -9     5    -7   0.17845  -0.15903   0.00800  18.39857   0.04356 101.33359         803.00        3706.23     1.52479     1.82603   170.73528     0.14187     0.00000   784.07916   784.07916
    27      261.67886       78.66364    -5     7    -9  -0.05483  -0.01133   0.00215  18.85091   0.04354  98.10457        3704.00        8890.23     1.37423     1.62705   166.60199     0.16825     0.00000    27.93155    27.93155
    34      698.75018      226.20305    -9     7    -7   0.06052   0.02071   0.00281  21.75018   0.04057  89.25148         522.00        2764.24     1.23885     2.33164     5.66252     0.52932     0.00000   615.84363   615.84363
    28      454.66644       47.75837    -7     7    -9   0.00702   0.03546   0.00115  19.89067   0.04053 100.53985        3364.00       10085.23     1.50838     1.91219    74.33635     0.19219     0.00000   823.12958   823.12958
    33      971.57977       85.51363   -11     5    -7  -0.33234  -0.33219   0.01538  21.19090   0.03885  97.71264         592.00        2329.02     1.30070     1.83220    10.00210     0.10838     0.00000   971.97760   971.97760
latticeparameters=   0.54329   0.54480   0.54093  89.94939  90.19261  90.25935
dpsx, dpsy: 179.00000 168.38699
dd, xcent, ycent:      150.57201      540.60303      212.87601
pitch,yaw,roll:  -0.22645   0.61642   0.00000
dev1, dev2, pixdev:   0.01223   0.01203   0.24498
deviatoric strain in crystal reference u1 u2 u3 (*10^3)
   0.52590  -2.27074  -1.67444
  -2.27074   3.30048   0.43239
  -1.67444   0.43239  -3.81351
deviatoric strain in sample reference X Y Z (*10^3)
  -0.23363  -0.92109   0.51100
  -0.92109   4.57649   0.14087
   0.51100   0.14087  -4.33000
deviatoric principal strains (*10^3):   4.74707  -0.33419  -4.40002
deviatoric strain principal axes in sample reference:
  -0.18134   0.98341   0.00505
   0.97506   0.17913   0.13101
  -0.12793  -0.02868   0.99137
deviatoric stress in crystal reference u1 u2 u3 (MPa)
       54.30604     -361.09247     -266.26917
     -361.09247      336.48141       68.75812
     -266.26917       68.75812     -387.01193
deviatoric stress in sample reference X Y Z (MPa)
      -35.97161     -205.49277      -25.64275
     -205.49277      562.79395       17.28977
      -25.64275       17.28977     -523.04681
deviatoric principal stresses (MPa):      627.03851      -98.82773     -524.43524
deviatoric stress principal axes in sample reference:
       -0.29672        0.95473        0.02097
       -0.95367       -0.29739        0.04553
        0.04970       -0.00649        0.99874
total strain in sample reference X Y Z (*10^3)
   1.54835  -0.92109   0.51100
  -0.92109   6.35847   0.14087
   0.51100   0.14087  -2.54802
total principal strains (*10^3):   6.52905   1.44779  -2.61804
total strain principal axes in sample reference:
  -0.18134   0.98341   0.00505
   0.97506   0.17913   0.13101
  -0.12793  -0.02868   0.99137
total stress in crystal reference u1 u2 u3 (MPa)
      577.35291     -361.09247     -266.26917
     -361.09247      859.52826       68.75812
     -266.26917       68.75812      136.03493
total stress in sample reference X Y Z (MPa)
      487.07523     -205.49277      -25.64275
     -205.49277     1085.84082       17.28977
      -25.64275       17.28977        0.00000
total principal stresses (MPa):     1150.08533      424.21912       -1.38840
total stress principal axes in sample reference:
       -0.29672        0.95473        0.02097
       -0.95367       -0.29739        0.04553
        0.04970       -0.00649        0.99874
dilatational strain (*10^-3):        1.78198
hydrostatic stress (MPa):      524.30536
Von Mises stress (MPa):     1008.44318
equivalent strain (*10^-3):        5.29191
equivalent stress (MPa):     1008.44318
maximum resolved shear stress:       21.64913
coordinates of a, b, c in X, Y, Z
   0.44450  -0.20241   0.23858
   0.19245   0.50583   0.06496
  -0.24578   0.03224   0.48111
coordinates of a*, b*, c* in X, Y, Z
   1.50615  -0.67768   0.81483
   0.65594   1.70109   0.22109
  -0.83545   0.10639   1.64678
