\\vmware-host\Shared Folders\Desktop\SiHyperlaueFinal_shielded_results\results_00146.STR
Number of grains:       1
Grain no:       1   Grainlist file index:       1    Number of peaks:      33
no   x(exp)  y(exp)  h  k  l xdev  ydev  angdev  energy  dspace  twotheta  intens   integr  xwidth   ywidth  tilt  rfactor   pearson  xcentroid  ycentroid
     4      392.64069      872.03882    -2     4    -2  -0.44609   0.17196   0.02549  12.43417   0.11120  53.27816       34257.00      125596.55     1.83549     1.88308     3.94104     0.22363     0.00000   546.38251   546.38251
     8      746.41278      951.31219    -3     3    -1  -0.33171   0.55667   0.02173  11.58248   0.12502  50.69505        1552.00        5903.31     1.88344     1.91527    19.59437     0.12836     0.00000     7.07811     7.07811
    13      991.69165      299.60553    -4     2    -2   0.06247  -0.08364   0.00342   8.25617   0.11087  85.26066       28766.00       47891.54     1.20824     1.50589   179.03705     0.20905     0.00000   282.89792   282.89792
     3      546.08722      225.17702    -3     3    -3   0.13502   0.11654   0.00737   8.44681   0.10453  89.19296       22321.00       35991.54     1.24894     1.27222     8.12175     0.19299     0.00000   992.04626   992.04626
     6     1026.48364      909.47638    -5     3    -1  -0.24045   0.08366   0.01102  14.48268   0.09202  55.44291       28830.00       78439.55     1.74339     1.77595   158.14914     0.25207     0.00000   925.35785   925.35785
     5      925.01538      682.96570    -6     4    -2   0.15323  -0.04332   0.00730  16.07162   0.07272  64.06889       25370.00       65155.54     1.59783     1.90688   162.02586     0.22129     0.00000  1026.79846  1026.79846
     2      426.66275      666.13409    -3     5    -3   0.36358  -0.04994   0.01999  14.34374   0.08302  62.74652       19837.00       61150.54     1.64608     2.05805   178.65202     0.20173     0.00000   746.71716   746.71716
    28        5.00209      893.52692    -1     7    -5   0.60848   0.01594   0.02614  20.99214   0.06280  56.09703        3590.00        8776.54     1.41167     1.65098   166.06174     0.16555     0.00000    27.91567    27.91567
    12      648.66711      500.20551    -6     6    -4   0.23343  -0.01773   0.01217  18.17547   0.05799  72.04797       24649.00       50325.54     1.25487     1.70566   178.45001     0.23558     0.00000   331.86057   331.86057
     7      668.66705      570.48035    -5     5    -3   0.17999  -0.06346   0.00973  15.62764   0.07085  68.09505       26008.00      130878.55     1.90983     2.97627   176.64272     0.30813     0.00000   426.91089   426.91089
    14      868.14105      257.25394    -5     3    -3   0.07102   0.23244   0.00768  10.82443   0.08283  87.48774       11478.00       20277.54     1.19078     1.46298     3.06662     0.17983     0.00000   258.94049   258.94049
     9      331.60077      270.39032    -4     6    -6  -0.52564  -0.10560   0.02402  15.66814   0.05790  86.21390       18098.00       39299.54     1.09006     1.87939     0.00000     0.19367     0.00000   649.00085   649.00085
    10      282.61816      288.49701    -3     5    -5  -0.47956  -0.09109   0.02150  12.96427   0.07071  85.10307       41046.00       62755.54     1.08481     1.56914   179.98512     0.19110     0.00000   669.01093   669.01093
    19      258.62534      619.59607    -3     7    -5  -0.23985  -0.22270   0.01375  19.06950   0.05971  65.97325       14837.00       28845.54     1.21855     1.69019     6.14540     0.21256     0.00000   129.73068   129.73068
    17      858.92090      567.47546    -7     5    -3   0.20199  -0.33249   0.01349  18.23674   0.05971  69.39767        7179.00       17451.54     1.09392     1.93740     0.02253     0.29903     0.00000   464.00677   464.00677
    32      475.07489      454.81790    -6     8    -6  -0.02790   0.04134   0.00189  21.94669   0.04664  74.55820        2440.00        5341.54     1.07906     1.48812     0.44322     0.14898     0.00000   454.99265   454.99265
    20      463.67136      498.14041    -5     7    -5   0.34816  -0.12506   0.01856  19.29520   0.05467  71.98308       11802.00       24055.54     1.17589     1.72661   177.73016     0.21142     0.00000   439.06671   439.06671
    22      721.87970      228.62766    -8     6    -6   0.10098   0.01554   0.00454  18.97035   0.04658  89.11638       19777.00       28585.54     1.15583     1.24394   179.13680     0.18239     0.00000   753.90808   753.90808
    15      129.38042       39.63141    -3     5    -7  -0.19665   0.20872   0.00930  13.60985   0.05952  99.85756       10746.00       26182.54     1.54875     1.70528    66.84246     0.21407     0.00000   859.19928   859.19928
    18      438.70209       20.96653    -6     6    -8   0.52587   0.32725   0.02342  17.12985   0.04652 102.15933        7853.00       16374.54     1.24966     1.57703   177.37013     0.20881     0.00000   722.16626   722.16626
    31     1012.73645      601.50342    -9     5    -3   0.01376  -0.25092   0.00636  21.59024   0.05071  68.96799         425.00        1874.54     1.39327     2.08963     6.21842     0.08548     0.00000   699.01727   699.01727
    16      753.60425      232.68796    -7     5    -5  -0.26902   0.18652   0.01321  16.22003   0.05459  88.87601         847.00        3064.54     1.46376     1.81433     0.20118     0.10740     0.00000   475.08008   475.08008
    21      145.61984      355.23795    -3     7    -7  -0.22176  -0.03924   0.00928  18.11933   0.05251  81.32806        1044.00        3170.54     1.39461     1.67203   168.46124     0.10755     0.00000  1013.02991  1013.02991
    23      364.76678      259.68765    -5     7    -7  -0.05522  -0.13143   0.00493  18.40763   0.04897  86.89163        6577.00       16542.54     1.23293     1.88601   178.78258     0.17100     0.00000   145.93800   145.93800
    30      784.17346       52.48924   -10     6    -8  -0.04331   0.05370   0.00230  21.07050   0.03837 100.14591        4679.00        8107.54     1.11599     1.32405   176.78194     0.14412     0.00000   262.01859   262.01859
    33      300.68240       93.02128    -6     8   -10  -0.02828  -0.03735   0.00160  21.51741   0.03837  97.34341         593.00        2363.54     1.34287     1.72209    14.62132     0.11165     0.00000   971.97821   971.97821
    25      919.96820      273.21835    -9     5    -5   0.07452  -0.02994   0.00312  19.04229   0.04745  86.63321         770.00        3564.54     1.65911     1.91606    83.30899     0.13099     0.00000   784.09119   784.09119
    26       27.56637      162.47659    -3     7    -9   0.21175  -0.00396   0.00713  18.64705   0.04601  92.52826         751.00        2530.54     1.13012     1.81710   178.88712     0.10550     0.00000   301.01974   301.01974
    24      822.89795       31.33083    -9     5    -7   0.16418   0.02837   0.00627  18.39467   0.04358 101.32287        8386.00       14414.54     1.20763     1.33689     2.41616     0.17678     0.00000   365.10898   365.10898
    27      261.67828       78.67116    -5     7    -9  -0.03417  -0.08013   0.00274  18.83512   0.04358  98.10837        2819.00        9977.54     1.70755     1.88886    20.44657     0.17642     0.00000   920.14972   920.14972
    36      698.79193      226.30078    -9     7    -7   0.07906  -0.08245   0.00442  21.73757   0.04060  89.25188           0.00           0.00     0.00000     0.00000     0.00000     0.00000     0.00000     0.00000     0.00000
    29      454.66574       47.75057    -7     7    -9   0.09612   0.04447   0.00420  19.87780   0.04055 100.53994        3357.00       10278.54     1.50153     1.92290    75.34514     0.19799     0.00000   823.13983   823.13983
    34      971.57196       85.53072   -11     5    -7  -0.45925  -0.15830   0.01681  21.18864   0.03885  97.70201         522.00        2764.24     1.23885     2.33164     5.66252     0.52932     0.00000   615.84363   615.84363
latticeparameters=   0.54286   0.54539   0.54077  89.96567  90.24636  90.28991
dpsx, dpsy: 179.00000 168.38699
dd, xcent, ycent:      150.57201      540.60303      212.87601
pitch,yaw,roll:  -0.22645   0.61642   0.00000
dev1, dev2, pixdev:   0.01389   0.01340   0.27118
deviatoric strain in crystal reference u1 u2 u3 (*10^3)
  -0.26488  -2.54105  -2.14108
  -2.54105   4.39652   0.28754
  -2.14108   0.28754  -4.11349
deviatoric strain in sample reference X Y Z (*10^3)
  -0.45123  -0.51719   0.03951
  -0.51719   5.59749   0.31388
   0.03951   0.31388  -5.12810
deviatoric principal strains (*10^3):   5.65027  -0.49420  -5.13792
deviatoric strain principal axes in sample reference:
  -0.08424   0.99603   0.02870
   0.99638   0.08386   0.01418
  -0.01171  -0.02979   0.99949
deviatoric stress in crystal reference u1 u2 u3 (MPa)
      -25.77697     -404.07758     -340.47446
     -404.07758      448.28735       45.72412
     -340.47446       45.72412     -417.18146
deviatoric stress in sample reference X Y Z (MPa)
      -44.60182     -176.36072      -94.06142
     -176.36072      678.11310       30.90066
      -94.06142       30.90066     -628.18237
deviatoric principal stresses (MPa):      720.81525      -72.50999     -642.97632
deviatoric stress principal axes in sample reference:
       -0.22882        0.97272        0.03824
       -0.96112       -0.23198        0.14979
        0.15458       -0.00247        0.98798
total strain in sample reference X Y Z (*10^3)
   1.68894  -0.51719   0.03951
  -0.51719   7.73766   0.31388
   0.03951   0.31388  -2.98794
total principal strains (*10^3):   7.79044   1.64597  -2.99775
total strain principal axes in sample reference:
  -0.08424   0.99603   0.02870
   0.99638   0.08386   0.01418
  -0.01171  -0.02979   0.99949
total stress in crystal reference u1 u2 u3 (MPa)
      602.40540     -404.07758     -340.47446
     -404.07758     1076.46973       45.72412
     -340.47446       45.72412      211.00093
total stress in sample reference X Y Z (MPa)
      583.58057     -176.36072      -94.06142
     -176.36072     1306.29553       30.90066
      -94.06142       30.90066        0.00000
total principal stresses (MPa):     1348.99768      555.67242      -14.79393
total stress principal axes in sample reference:
       -0.22882        0.97272        0.03824
       -0.96112       -0.23198        0.14979
        0.15458       -0.00247        0.98798
dilatational strain (*10^-3):        2.14017
hydrostatic stress (MPa):      629.95868
Von Mises stress (MPa):     1186.32288
equivalent strain (*10^-3):        6.24862
equivalent stress (MPa):     1186.32288
maximum resolved shear stress:       21.24250
coordinates of a, b, c in X, Y, Z
   0.44369  -0.20269   0.23790
   0.19268   0.50587   0.06534
  -0.24586   0.03194   0.48043
coordinates of a*, b*, c* in X, Y, Z
   1.50535  -0.67871   0.81547
   0.65584   1.69717   0.22280
  -0.83462   0.10525   1.64626
