\\vmware-host\Shared Folders\Desktop\SiHyperlaueFinal_shielded_results\results_00142.STR
Number of grains:       1
Grain no:       1   Grainlist file index:       1    Number of peaks:      33
no   x(exp)  y(exp)  h  k  l xdev  ydev  angdev  energy  dspace  twotheta  intens   integr  xwidth   ywidth  tilt  rfactor   pearson  xcentroid  ycentroid
     4      392.64151      872.04681    -2     4    -2  -0.44186   0.16294   0.02523  12.43504   0.11119  53.27818       33761.00      125423.59     1.83682     1.88434     5.73951     0.22321     0.00000   546.38843   546.38843
     7      746.39288      951.30267    -3     3    -1  -0.31713   0.58961   0.02137  11.58322   0.12502  50.69411       26195.00      131074.59     1.91006     2.97565   176.46080     0.30842     0.00000   426.90973   426.90973
    13      991.68860      299.60730    -4     2    -2   0.06220  -0.08425   0.00342   8.25635   0.11087  85.26058       29060.00       48410.60     1.20170     1.51106   179.08234     0.21005     0.00000   282.90070   282.90070
     3      546.08984      225.18521    -3     3    -3   0.12635   0.11111   0.00693   8.44723   0.10453  89.19278       22139.00       35730.60     1.24743     1.26794     6.14956     0.19293     0.00000   992.03320   992.03320
     6     1026.48022      909.48901    -5     3    -1  -0.24069   0.10342   0.01114  14.48338   0.09202  55.44161       29243.00       78982.59     1.68907     1.90997   152.32568     0.23462     0.00000   925.35309   925.35309
     5      925.03876      683.00940    -6     4    -2   0.12452  -0.06937   0.00617  16.07230   0.07272  64.06798       26076.00       66363.59     1.60280     1.89088   160.63225     0.22202     0.00000  1026.79260  1026.79260
     2      426.66315      666.13593    -3     5    -3   0.36518  -0.04782   0.02008  14.34472   0.08301  62.74631       20888.00       63694.60     1.66603     2.02653   173.10568     0.20102     0.00000   746.71075   746.71075
    28        5.05525      893.49817    -1     7    -5   0.58442   0.00293   0.02506  20.99340   0.06280  56.09828        3594.00        8551.60     1.36778     1.65918   168.78072     0.16116     0.00000    27.91405    27.91405
    12      648.66748      500.21045    -6     6    -4   0.22759  -0.01416   0.01186  18.17644   0.05799  72.04745       24693.00       50302.60     1.25727     1.70315   178.11212     0.23672     0.00000   331.86581   331.86581
     8      668.66711      570.49371    -5     5    -3   0.17453  -0.06652   0.00947  15.62850   0.07085  68.09446        1599.00        5947.45     1.81741     1.98976    72.25998     0.12208     0.00000     7.07195     7.07195
    14      868.14166      257.27338    -5     3    -3   0.06405   0.21363   0.00704  10.82474   0.08283  87.48769       11598.00       20190.60     1.19357     1.45000     3.09195     0.17508     0.00000   258.93536   258.93536
     9      331.59937      270.39090    -4     6    -6  -0.52345  -0.10408   0.02391  15.66910   0.05790  86.21377       18082.00       38668.60     1.09001     1.87746     0.00000     0.18936     0.00000   649.01239   649.01239
    10      282.62091      288.49429    -3     5    -5  -0.47921  -0.08720   0.02147  12.96510   0.07071  85.10299       41301.00       62131.60     1.08477     1.54274   179.99467     0.19028     0.00000   669.00623   669.00623
    19      258.62436      619.60138    -3     7    -5  -0.22949  -0.23257   0.01341  19.07082   0.05971  65.97343       14703.00       28668.60     1.22233     1.69077     5.92557     0.21105     0.00000   129.73531   129.73531
    17      858.91022      567.48193    -7     5    -3   0.20658  -0.32689   0.01355  18.23750   0.05971  69.39697        7154.00       17616.60     1.09419     1.94546   179.99883     0.30108     0.00000   464.01941   464.01941
    32      475.07434      454.84683    -6     8    -6  -0.02905   0.01781   0.00159  21.94803   0.04663  74.55788        2457.00        5341.60     1.08253     1.48795   177.77872     0.14658     0.00000   455.01483   455.01483
    20      463.67215      498.14890    -5     7    -5   0.34647  -0.12815   0.01849  19.29641   0.05467  71.98276       11563.00       23560.60     1.17039     1.73094   177.67378     0.21031     0.00000   439.08136   439.08136
    21      721.87939      228.62979    -8     6    -6   0.09359   0.01480   0.00421  18.97106   0.04657  89.11628         988.00        2941.60     1.41823     1.67953     0.00000     0.10178     0.00000  1013.01508  1013.01508
    15      129.38016       39.62989    -3     5    -7  -0.19270   0.20923   0.00921  13.61069   0.05952  99.85763       10872.00       26204.60     1.53143     1.69718   128.29044     0.21654     0.00000   859.20850   859.20850
    18      438.69998       20.97108    -6     6    -8   0.52096   0.32183   0.02317  17.13068   0.04651 102.15937        7663.00       16185.60     1.24477     1.57568   179.16536     0.20944     0.00000   722.16736   722.16736
    31     1012.75024      601.49506    -9     5    -3  -0.00339  -0.22759   0.00568  21.59096   0.05071  68.96721         467.00        2064.60     1.28888     1.97745     8.61663     0.10277     0.00000   698.99866   698.99866
    16      753.59857      232.68747    -7     5    -5  -0.27097   0.18816   0.01331  16.22060   0.05459  88.87593         781.00        2780.60     1.51530     1.85417   178.47893     0.09417     0.00000   475.07355   475.07355
    22      145.61574      355.24887    -3     7    -7  -0.20667  -0.05392   0.00875  18.12055   0.05250  81.32825       19390.00       28318.60     1.15642     1.25799   177.88104     0.18410     0.00000   753.89459   753.89459
    23      364.76703      259.68335    -5     7    -7  -0.05610  -0.12460   0.00476  18.40874   0.04897  86.89147        6414.00       15986.60     1.24319     1.88390   179.25555     0.16856     0.00000   145.93063   145.93063
    30      784.15759       52.51242   -10     6    -8  -0.03574   0.02475   0.00155  21.07109   0.03837 100.14628        4619.00        8212.60     1.12557     1.34250   178.65758     0.14483     0.00000   262.01068   262.01068
    33      300.68207       92.95165    -6     8   -10  -0.02961   0.03302   0.00158  21.51865   0.03836  97.34336         610.00        2255.60     1.35463     1.76318    11.52213     0.10018     0.00000   971.98273   971.98273
    25      919.94696      273.22568    -9     5    -5   0.09045  -0.03659   0.00379  19.04278   0.04745  86.63316         782.00        3487.60     1.71292     1.80393    74.92718     0.12668     0.00000   784.08142   784.08142
    26       27.58383      162.46158    -3     7    -9   0.20664   0.00706   0.00695  18.64826   0.04601  92.52850         767.00        2613.60     1.12975     1.73133   179.22971     0.11405     0.00000   301.00296   301.00296
    24      822.88855       31.34028    -9     5    -7   0.16582   0.01140   0.00626  18.39513   0.04357 101.32334        8459.00       14241.60     1.19172     1.33832     0.23822     0.17243     0.00000   365.11191   365.11191
    27      261.68127       78.66664    -5     7    -9  -0.03777  -0.07520   0.00268  18.83623   0.04357  98.10834        2832.00        9855.60     1.67930     1.89534    18.37434     0.17731     0.00000   920.14111   920.14111
    35      698.73309      226.28355    -9     7    -7   0.13021  -0.06364   0.00620  21.73842   0.04060  89.25177           0.00           0.00     0.00000     0.00000     0.00000     0.00000     0.00000     0.00000     0.00000
    29      454.66809       47.75946    -7     7    -9   0.08691   0.03519   0.00375  19.87877   0.04055 100.53995        3327.00       10102.60     1.49027     1.90812    37.46376     0.20855     0.00000   823.10638   823.10638
    34      971.56592       85.52523   -11     5    -7  -0.45681  -0.16109   0.01676  21.18902   0.03885  97.70250         522.00        2764.24     1.23885     2.33164     5.66252     0.52932     0.00000   615.84363   615.84363
latticeparameters=   0.54288   0.54537   0.54076  89.96511  90.24482  90.28909
dpsx, dpsy: 179.00000 168.38699
dd, xcent, ycent:      150.57201      540.60303      212.87601
pitch,yaw,roll:  -0.22645   0.61642   0.00000
dev1, dev2, pixdev:   0.01373   0.01321   0.26700
deviatoric strain in crystal reference u1 u2 u3 (*10^3)
  -0.21601  -2.53381  -2.12770
  -2.53381   4.36046   0.29249
  -2.12770   0.29249  -4.12641
deviatoric strain in sample reference X Y Z (*10^3)
  -0.43302  -0.53849   0.07088
  -0.53849   5.56827   0.30353
   0.07088   0.30353  -5.11721
deviatoric principal strains (*10^3):   5.62436  -0.47891  -5.12741
deviatoric strain principal axes in sample reference:
  -0.08819   0.99572   0.02755
   0.99593   0.08763   0.02095
  -0.01845  -0.02929   0.99940
deviatoric stress in crystal reference u1 u2 u3 (MPa)
      -20.81485     -402.92572     -338.34610
     -402.92572      444.61252       46.51198
     -338.34610       46.51198     -418.50266
deviatoric stress in sample reference X Y Z (MPa)
      -43.16525     -178.22160      -90.28116
     -178.22160      674.83588       29.98973
      -90.28116       29.98973     -626.37561
deviatoric principal stresses (MPa):      718.49634      -73.16278     -640.03851
deviatoric stress principal axes in sample reference:
       -0.23186        0.97204        0.03724
       -0.96129       -0.23482        0.14415
        0.14886       -0.00238        0.98886
total strain in sample reference X Y Z (*10^3)
   1.70100  -0.53849   0.07088
  -0.53849   7.70228   0.30353
   0.07088   0.30353  -2.98320
total principal strains (*10^3):   7.75838   1.65510  -2.99340
total strain principal axes in sample reference:
  -0.08819   0.99572   0.02755
   0.99593   0.08763   0.02095
  -0.01845  -0.02929   0.99940
total stress in crystal reference u1 u2 u3 (MPa)
      605.56079     -402.92572     -338.34610
     -402.92572     1070.98816       46.51198
     -338.34610       46.51198      207.87299
total stress in sample reference X Y Z (MPa)
      583.21039     -178.22160      -90.28116
     -178.22160     1301.21155       29.98973
      -90.28116       29.98973        0.00000
total principal stresses (MPa):     1344.87195      553.21289      -13.66293
total stress principal axes in sample reference:
       -0.23186        0.97204        0.03724
       -0.96129       -0.23482        0.14415
        0.14886       -0.00238        0.98886
dilatational strain (*10^-3):        2.13401
hydrostatic stress (MPa):      628.14063
Von Mises stress (MPa):     1181.88184
equivalent strain (*10^-3):        6.22645
equivalent stress (MPa):     1181.88184
maximum resolved shear stress:       18.51904
coordinates of a, b, c in X, Y, Z
   0.44374  -0.20269   0.23793
   0.19267   0.50588   0.06534
  -0.24585   0.03194   0.48046
coordinates of a*, b*, c* in X, Y, Z
   1.50539  -0.67867   0.81543
   0.65585   1.69734   0.22276
  -0.83467   0.10527   1.64636
