\\vmware-host\Shared Folders\Desktop\SiHyperlaueFinal_shielded_results\results_00071.STR
Number of grains:       1
Grain no:       1   Grainlist file index:       1    Number of peaks:      33
no   x(exp)  y(exp)  h  k  l xdev  ydev  angdev  energy  dspace  twotheta  intens   integr  xwidth   ywidth  tilt  rfactor   pearson  xcentroid  ycentroid
     2      392.62991      871.97290    -2     4    -2  -0.31922  -0.11901   0.01856  12.44813   0.11104  53.29253       43377.00      150635.09     1.77049     2.07199   178.64050     0.20629     0.00000   746.64740   746.64740
     5      746.32733      951.25287    -3     3    -1  -0.34854   0.53236   0.02233  11.59379   0.12490  50.69744       42065.00      108880.09     1.69301     1.83776   142.74272     0.20615     0.00000  1026.76392  1026.76392
    13      991.67871      299.61646    -4     2    -2   0.12797  -0.05640   0.00516   8.25861   0.11084  85.25861       39420.00       68265.09     1.22735     1.56365   179.20934     0.22305     0.00000   282.87762   282.87762
     3      546.04907      225.14633    -3     3    -3   0.10935   0.18706   0.00798   8.45282   0.10446  89.19032       30871.00       47663.09     1.23896     1.24271    47.08565     0.18690     0.00000   992.02472   992.02472
     7     1026.44214      909.49902    -5     3    -1  -0.27987   0.26723   0.01406  14.49345   0.09196  55.43384         432.00        1402.09     1.22168     1.59912     0.63043     0.06744     0.00000    62.01813    62.01813
     6      924.99896      683.02277    -6     4    -2   0.08970   0.02904   0.00418  16.08299   0.07268  64.06183       41749.00      110016.09     1.67125     1.88871    18.06073     0.24435     0.00000   925.34839   925.34839
    36       61.85652      407.69550    -1     3    -3   0.20580   0.28929   0.01175   7.85995   0.12446  78.64923           0.00           0.00     0.00000     0.00000     0.00000     0.00000     0.00000     0.00000     0.00000
     4      426.63007      666.11298    -3     5    -3   0.45503  -0.12745   0.02510  14.36010   0.08292  62.75144       58595.00      198016.09     1.81050     1.87489    12.13203     0.22831     0.00000   546.38208   546.38208
    14      648.66675      500.22424    -6     6    -4   0.16636   0.02284   0.00868  18.19163   0.05795  72.04428       13858.00       24152.09     1.21008     1.44379     4.41695     0.18605     0.00000   258.92685   258.92685
     8      668.66699      570.50092    -5     5    -3   0.10794  -0.03243   0.00581  15.64202   0.07079  68.09189       39682.00      188690.09     1.90436     2.82532   175.23093     0.30660     0.00000   426.84567   426.84567
    11      868.09955      257.30264    -5     3    -3   0.09325   0.20011   0.00722  10.82860   0.08280  87.48671       21424.00       60456.09     1.78019     1.85642   116.99536     0.21578     0.00000   868.37500   868.37500
    10      331.58890      270.35590    -4     6    -6  -0.49248  -0.03235   0.02227  15.68259   0.05785  86.21144       55169.00       82231.09     1.08453     1.53152     0.06299     0.19311     0.00000   669.00281   669.00281
     9      282.61050      288.46658    -3     5    -5  -0.41842  -0.03288   0.01859  12.97672   0.07064  85.10129       22647.00       47366.09     1.09007     1.86816     0.05450     0.19453     0.00000   649.01117   649.01117
    19      258.61786      619.59662    -3     7    -5  -0.04857  -0.39489   0.01078  19.09150   0.05964  65.98103       19472.00       38635.09     1.24283     1.69856     6.92743     0.23114     0.00000   129.70078   129.70078
    17      858.88110      567.51007    -7     5    -3   0.16313  -0.26770   0.01088  18.24945   0.05968  69.39173        8443.00       20948.09     1.08648     1.94404   179.87888     0.30437     0.00000   464.01041   464.01041
    31      475.02441      454.84323    -6     8    -6   0.01835   0.05051   0.00182  21.96887   0.04659  74.55611         527.00        2274.09     1.27526     1.91318     1.85542     0.10539     0.00000   699.00037   699.00037
    20      463.66980      498.15900    -5     7    -5   0.35834  -0.12610   0.01909  19.31545   0.05462  71.98204       13743.00       27656.09     1.16960     1.72475   177.64394     0.21806     0.00000   439.07162   439.07162
    22      721.84955      228.63951    -8     6    -6   0.06607   0.02331   0.00305  18.98027   0.04655  89.11507       23215.00       34390.09     1.16709     1.28240   179.25197     0.19376     0.00000   753.87994   753.87994
    15      129.37386       39.61877    -3     5    -7  -0.20998   0.22104   0.00989  13.62012   0.05948  99.85748       14287.00       32201.09     1.53179     1.59471   173.24828     0.22619     0.00000   859.20093   859.20093
    18      438.69989       20.96519    -6     6    -8   0.43183   0.29853   0.01964  17.13945   0.04649 102.16097        9523.00       18941.09     1.22963     1.52306   177.85777     0.21496     0.00000   722.16089   722.16089
    30     1012.70978      601.58331    -9     5    -3   0.01838  -0.16925   0.00438  21.60215   0.05069  68.95969        5305.00        9359.09     1.11723     1.37136   177.01311     0.15351     0.00000   262.01483   262.01483
    16      753.58856      232.69347    -7     5    -5  -0.31216   0.19811   0.01509  16.22799   0.05456  88.87487         937.00        3216.09     1.53025     1.80481   172.74567     0.10793     0.00000   475.04703   475.04703
    21      145.61031      355.19135    -3     7    -7  -0.04365  -0.03035   0.00205  18.13805   0.05245  81.32975        1261.00        3405.09     1.38070     1.50570   161.57309     0.10745     0.00000  1013.00775  1013.00775
    23      364.75439      259.68430    -5     7    -7  -0.04091  -0.08463   0.00331  18.42409   0.04893  86.88886        7311.00       19176.09     1.24955     1.89571   179.33763     0.17816     0.00000   145.92171   145.92171
    29      784.15851       52.55150   -10     6    -8  -0.05235  -0.10860   0.00396  21.07592   0.03835 100.15206        3996.00       11657.09     1.49272     1.87349    72.76582     0.20625     0.00000   823.14154   823.14154
    32      300.68396       92.94798    -6     8   -10  -0.07117   0.05330   0.00333  21.53336   0.03834  97.34223        2829.00        5974.09     1.08869     1.52482     2.43828     0.15045     0.00000   455.02664   455.02664
    25      919.91547      273.30103    -9     5    -5   0.13441  -0.09055   0.00604  19.04885   0.04744  86.63191         884.00        3993.09     1.53491     1.82688   164.82114     0.14953     0.00000   784.07184   784.07184
    26       27.57106      162.44032    -3     7    -9   0.32099   0.02251   0.01081  18.66352   0.04597  92.52902         897.00        2717.09     1.16119     1.74939   175.15984     0.10966     0.00000   300.99313   300.99313
    24      822.87207       31.36207    -9     5    -7   0.19372  -0.13221   0.00809  18.39829   0.04356 101.33058       10044.00       16702.09     1.20137     1.30804     1.96326     0.18077     0.00000   365.09354   365.09354
    27      261.68021       78.65945    -5     7    -9  -0.07297  -0.05480   0.00325  18.84915   0.04354  98.10742        3722.00       11636.09     1.63514     1.84403    17.17721     0.18881     0.00000   920.15387   920.15387
    34      698.74731      226.34924    -9     7    -7   0.05527  -0.10903   0.00428  21.74946   0.04058  89.25042         522.00        2764.24     1.23885     2.33164     5.66252     0.52932     0.00000   615.84363   615.84363
    28      454.66577       47.76835    -7     7    -9   0.00684   0.00878   0.00039  19.88932   0.04053 100.54090        4083.00       10207.09     1.40633     1.71055   168.44388     0.17393     0.00000    27.93647    27.93647
    33      971.57330       85.56729   -11     5    -7  -0.34813  -0.31196   0.01545  21.19098   0.03885  97.70844         642.00        2563.09     1.32316     1.78109    11.64238     0.11753     0.00000   971.97247   971.97247
latticeparameters=   0.54325   0.54482   0.54094  89.94916  90.19174  90.25685
dpsx, dpsy: 179.00000 168.38699
dd, xcent, ycent:      150.57201      540.60303      212.87601
pitch,yaw,roll:  -0.22645   0.61642   0.00000
dev1, dev2, pixdev:   0.01223   0.01205   0.25482
deviatoric strain in crystal reference u1 u2 u3 (*10^3)
   0.46032  -2.24898  -1.66692
  -2.24898   3.35023   0.43448
  -1.66692   0.43448  -3.79762
deviatoric strain in sample reference X Y Z (*10^3)
  -0.26156  -0.87028   0.49323
  -0.87028   4.59519   0.16516
   0.49323   0.16516  -4.32069
deviatoric principal strains (*10^3):   4.74710  -0.34629  -4.38788
deviatoric strain principal axes in sample reference:
  -0.17035   0.98534   0.00868
   0.97743   0.16785   0.12828
  -0.12494  -0.03034   0.99170
deviatoric stress in crystal reference u1 u2 u3 (MPa)
       47.64195     -357.63290     -265.07370
     -357.63290      341.54529       69.09039
     -265.07370       69.09039     -385.39063
deviatoric stress in sample reference X Y Z (MPa)
      -38.46083     -199.49252      -26.87062
     -199.49252      563.85376       20.18581
      -26.87062       20.18581     -521.59631
deviatoric principal stresses (MPa):      624.57452      -97.60912     -523.16882
deviatoric stress principal axes in sample reference:
       -0.28892        0.95706        0.02363
       -0.95596       -0.28974        0.04679
        0.05163       -0.00907        0.99863
total strain in sample reference X Y Z (*10^3)
   1.51547  -0.87028   0.49323
  -0.87028   6.37223   0.16516
   0.49323   0.16516  -2.54365
total principal strains (*10^3):   6.52414   1.43075  -2.61085
total strain principal axes in sample reference:
  -0.17035   0.98534   0.00868
   0.97743   0.16785   0.12828
  -0.12494  -0.03034   0.99170
total stress in crystal reference u1 u2 u3 (MPa)
      569.23828     -357.63290     -265.07370
     -357.63290      863.14160       69.09039
     -265.07370       69.09039      136.20569
total stress in sample reference X Y Z (MPa)
      483.13547     -199.49252      -26.87062
     -199.49252     1085.45007       20.18581
      -26.87062       20.18581        0.00000
total principal stresses (MPa):     1146.17090      423.98718       -1.57250
total stress principal axes in sample reference:
       -0.28892        0.95706        0.02363
       -0.95596       -0.28974        0.04679
        0.05163       -0.00907        0.99863
dilatational strain (*10^-3):        1.77704
hydrostatic stress (MPa):      522.86188
Von Mises stress (MPa):     1004.97888
equivalent strain (*10^-3):        5.28573
equivalent stress (MPa):     1004.97888
maximum resolved shear stress:       16.53149
coordinates of a, b, c in X, Y, Z
   0.44443  -0.20242   0.23854
   0.19251   0.50579   0.06496
  -0.24574   0.03227   0.48110
coordinates of a*, b*, c* in X, Y, Z
   1.50609  -0.67788   0.81476
   0.65603   1.70083   0.22102
  -0.83533   0.10647   1.64667
