\\vmware-host\Shared Folders\Desktop\SiHyperlaueFinal_shielded_results\results_00148.STR
Number of grains:       1
Grain no:       1   Grainlist file index:       1    Number of peaks:      33
no   x(exp)  y(exp)  h  k  l xdev  ydev  angdev  energy  dspace  twotheta  intens   integr  xwidth   ywidth  tilt  rfactor   pearson  xcentroid  ycentroid
     4      392.64063      872.03558    -2     4    -2  -0.44212   0.16397   0.02525  12.43437   0.11119  53.27861       34210.00      124413.94     1.83431     1.88168     1.37320     0.22421     0.00000   546.38690   546.38690
     8      746.40845      951.29608    -3     3    -1  -0.32747   0.57243   0.02168  11.58269   0.12502  50.69506        1534.00        5808.76     1.74498     2.05915   172.19386     0.12150     0.00000     7.07261     7.07261
    13      991.69269      299.60178    -4     2    -2   0.05843  -0.07630   0.00316   8.25625   0.11087  85.26044       28339.00       47636.93     1.20743     1.51784   179.25490     0.21145     0.00000   282.89914   282.89914
     3      546.08459      225.17195    -3     3    -3   0.13597   0.12337   0.00752   8.44695   0.10453  89.19285       21700.00       35528.93     1.25971     1.28172     7.16415     0.19393     0.00000   992.04645   992.04645
     6     1026.48035      909.47076    -5     3    -1  -0.23873   0.09699   0.01101  14.48293   0.09202  55.44259       28676.00       77380.94     1.70527     1.83743   106.54990     0.24503     0.00000   925.35443   925.35443
     5      925.02283      682.97754    -6     4    -2   0.14398  -0.05040   0.00692  16.07187   0.07272  64.06864       24620.00       63511.93     1.60808     1.90156   161.36131     0.21871     0.00000  1026.79749  1026.79749
     2      426.66348      666.12433    -3     5    -3   0.36534  -0.04496   0.02009  14.34401   0.08302  62.74676       19039.00       59196.93     1.65402     2.05466   178.85753     0.19792     0.00000   746.71759   746.71759
    28        5.01866      893.49353    -1     7    -5   0.60251   0.02444   0.02591  20.99238   0.06280  56.09786        3507.00        8624.93     1.41281     1.64125   164.58778     0.16666     0.00000    27.93938    27.93938
    12      648.66760      500.19897    -6     6    -4   0.23215  -0.00990   0.01209  18.17580   0.05799  72.04789       24223.00       49838.93     1.25539     1.71635   178.26236     0.23500     0.00000   331.87708   331.87708
     7      668.66718      570.48138    -5     5    -3   0.17921  -0.06338   0.00969  15.62793   0.07085  68.09499       25477.00      128931.94     1.90953     2.97633   176.41109     0.30936     0.00000   426.91251   426.91251
    14      868.14294      257.26358    -5     3    -3   0.06597   0.22572   0.00741  10.82456   0.08283  87.48756       11375.00       20043.93     1.19028     1.45433     3.21364     0.17988     0.00000   258.94049   258.94049
     9      331.59991      270.38327    -4     6    -6  -0.52394  -0.09855   0.02391  15.66844   0.05790  86.21390       17518.00       38136.93     1.09107     1.88341     0.00000     0.19016     0.00000   649.00574   649.00574
    10      282.61862      288.49045    -3     5    -5  -0.47842  -0.08521   0.02142  12.96453   0.07071  85.10311       40705.00       62065.93     1.08531     1.56669     0.02128     0.18982     0.00000   669.00543   669.00543
    19      258.62589      619.59961    -3     7    -5  -0.23580  -0.23378   0.01371  19.06986   0.05971  65.97362       14663.00       28595.93     1.22206     1.68352     6.20310     0.21436     0.00000   129.73534   129.73534
    17      858.92169      567.47485    -7     5    -3   0.19931  -0.32825   0.01332  18.23703   0.05971  69.39746        6966.00       17271.93     1.09517     1.95367     0.10363     0.29570     0.00000   464.00272   464.00272
    32      475.09750      454.83044    -6     8    -6  -0.04983   0.02827   0.00270  21.94712   0.04663  74.55823        2494.00        5391.93     1.07804     1.49569   179.70752     0.14754     0.00000   454.96814   454.96814
    20      463.67203      498.16632    -5     7    -5   0.34858  -0.15219   0.01873  19.29557   0.05467  71.98315       11619.00       23693.93     1.17464     1.73877   177.72372     0.20561     0.00000   439.06198   439.06198
    21      721.87762      228.62891    -8     6    -6   0.10023   0.01671   0.00451  18.97061   0.04657  89.11622        1028.00        2949.93     1.39955     1.61466   168.58884     0.09784     0.00000  1013.01575  1013.01575
    15      129.38435       39.62992    -3     5    -7  -0.20022   0.21127   0.00944  13.61011   0.05952  99.85750       10739.00       26400.93     1.54316     1.71935    50.28438     0.21432     0.00000   859.21790   859.21790
    18      438.70081       20.97381    -6     6    -8   0.52438   0.32200   0.02330  17.13012   0.04651 102.15920        7639.00       16117.93     1.24539     1.58065   177.83186     0.20832     0.00000   722.16895   722.16895
    31     1012.72369      601.52307    -9     5    -3   0.02439  -0.26496   0.00680  21.59054   0.05071  68.96769         436.00        2029.93     1.30548     2.03899     0.49349     0.09696     0.00000   698.98328   698.98328
    16      753.60126      232.68568    -7     5    -5  -0.26899   0.19131   0.01328  16.22024   0.05459  88.87585         814.00        2942.93     1.48605     1.86979   178.47002     0.09974     0.00000   475.06018   475.06018
    22      145.61993      355.23187    -3     7    -7  -0.21783  -0.03652   0.00911  18.11969   0.05250  81.32824       19525.00       28257.93     1.15467     1.25153   179.07996     0.18011     0.00000   753.88611   753.88611
    23      364.76376      259.68555    -5     7    -7  -0.05183  -0.12894   0.00478  18.40799   0.04897  86.89161        6356.00       16049.93     1.23029     1.88795   179.29886     0.17046     0.00000   145.93214   145.93214
    30      784.15973       52.50680   -10     6    -8  -0.03379   0.03813   0.00172  21.07071   0.03837 100.14580        4685.00        8303.93     1.12586     1.33172   176.73659     0.14905     0.00000   261.99448   261.99448
    34      300.68515       93.01831    -6     8   -10  -0.03175  -0.03300   0.00161  21.51780   0.03837  97.34333         522.00        2764.24     1.23885     2.33164     5.66252     0.52932     0.00000   615.84363   615.84363
    24      919.99060      273.21613    -9     5    -5   0.04897  -0.02456   0.00210  19.04250   0.04745  86.63302        8319.00       14023.93     1.19759     1.32848     1.57931     0.17175     0.00000   365.09747   365.09747
    26       27.56710      162.47993    -3     7    -9   0.21427  -0.00845   0.00722  18.64742   0.04601  92.52833         721.00        2332.93     1.13516     1.83730   176.20735     0.09786     0.00000   301.02682   301.02682
    25      822.89392       31.32116    -9     5    -7   0.16382   0.03986   0.00633  18.39484   0.04357 101.32277         772.00        3616.93     1.62288     1.97942    94.13423     0.13516     0.00000   784.06573   784.06573
    27      261.68124       78.66455    -5     7    -9  -0.03763  -0.07220   0.00260  18.83547   0.04357  98.10828        2846.00       10285.93     1.72968     1.91143    37.48877     0.17184     0.00000   920.15961   920.15961
    35      698.75861      226.28339    -9     7    -7   0.10965  -0.06272   0.00532  21.73788   0.04060  89.25173           0.00           0.00     0.00000     0.00000     0.00000     0.00000     0.00000     0.00000     0.00000
    29      454.66373       47.75600    -7     7    -9   0.09553   0.04105   0.00414  19.87812   0.04055 100.53981        3274.00       10064.93     1.52542     1.91156    38.04596     0.20412     0.00000   823.12433   823.12433
    33      971.55585       85.55669   -11     5    -7  -0.44706  -0.18222   0.01664  21.18879   0.03885  97.70191         592.00        2366.93     1.37676     1.83240    12.42509     0.10842     0.00000   971.97925   971.97925
latticeparameters=   0.54286   0.54539   0.54077  89.96505  90.24540  90.28894
dpsx, dpsy: 179.00000 168.38699
dd, xcent, ycent:      150.57201      540.60303      212.87601
pitch,yaw,roll:  -0.22645   0.61642   0.00000
dev1, dev2, pixdev:   0.01382   0.01335   0.27017
deviatoric strain in crystal reference u1 u2 u3 (*10^3)
  -0.25261  -2.53254  -2.13275
  -2.53254   4.38594   0.29303
  -2.13275   0.29303  -4.11522
deviatoric strain in sample reference X Y Z (*10^3)
  -0.44766  -0.51958   0.05221
  -0.51958   5.58445   0.31553
   0.05221   0.31553  -5.11867
deviatoric principal strains (*10^3):   5.63780  -0.49075  -5.12894
deviatoric strain principal axes in sample reference:
  -0.08479   0.99598   0.02880
   0.99629   0.08433   0.01699
  -0.01449  -0.03014   0.99944
deviatoric stress in crystal reference u1 u2 u3 (MPa)
      -24.53206     -402.72388     -339.14984
     -402.72388      447.20813       46.59734
     -339.14984       46.59734     -417.35959
deviatoric stress in sample reference X Y Z (MPa)
      -44.40525     -176.32573      -92.30699
     -176.32573      676.45514       31.35333
      -92.30699       31.35333     -626.73340
deviatoric principal stresses (MPa):      719.24646      -72.90208     -641.02783
deviatoric stress principal axes in sample reference:
       -0.22921        0.97262        0.03838
       -0.96144       -0.23238        0.14709
        0.15198       -0.00318        0.98838
total strain in sample reference X Y Z (*10^3)
   1.68757  -0.51958   0.05221
  -0.51958   7.71968   0.31553
   0.05221   0.31553  -2.98344
total principal strains (*10^3):   7.77304   1.64449  -2.99371
total strain principal axes in sample reference:
  -0.08479   0.99598   0.02880
   0.99629   0.08433   0.01699
  -0.01449  -0.03014   0.99944
total stress in crystal reference u1 u2 u3 (MPa)
      602.20135     -402.72388     -339.14984
     -402.72388     1073.94153       46.59734
     -339.14984       46.59734      209.37381
total stress in sample reference X Y Z (MPa)
      582.32813     -176.32573      -92.30699
     -176.32573     1303.18860       31.35333
      -92.30699       31.35333        0.00000
total principal stresses (MPa):     1345.97986      553.83130      -14.29446
total stress principal axes in sample reference:
       -0.22921        0.97262        0.03838
       -0.96144       -0.23238        0.14709
        0.15198       -0.00318        0.98838
dilatational strain (*10^-3):        2.13523
hydrostatic stress (MPa):      628.50555
Von Mises stress (MPa):     1183.34534
equivalent strain (*10^-3):        6.23600
equivalent stress (MPa):     1183.34534
maximum resolved shear stress:       20.46639
coordinates of a, b, c in X, Y, Z
   0.44370  -0.20268   0.23791
   0.19268   0.50587   0.06534
  -0.24585   0.03194   0.48044
coordinates of a*, b*, c* in X, Y, Z
   1.50536  -0.67870   0.81545
   0.65583   1.69722   0.22277
  -0.83464   0.10526   1.64627
