\\vmware-host\Shared Folders\Desktop\SiHyperlaueFinal_shielded_results\results_00012.STR
Number of grains:       1
Grain no:       1   Grainlist file index:       1    Number of peaks:      33
no   x(exp)  y(exp)  h  k  l xdev  ydev  angdev  energy  dspace  twotheta  intens   integr  xwidth   ywidth  tilt  rfactor   pearson  xcentroid  ycentroid
     2      392.61761      871.97839    -2     4    -2  -0.32767  -0.10369   0.01898  12.44822   0.11104  53.29176       74417.00      261920.52     1.82022     2.07330     0.00000     0.21711     0.00000   746.60138   746.60138
     4      746.27838      951.30786    -3     3    -1  -0.32434   0.52472   0.02106  11.59416   0.12490  50.69544      108193.00      353172.53     1.78109     1.87376     0.75649     0.23259     0.00000   546.37292   546.37292
    13      991.65796      299.62137    -4     2    -2   0.11505  -0.01928   0.00442   8.25885   0.11084  85.25609       60152.00      104561.52     1.23613     1.56509   178.99751     0.23263     0.00000   282.86615   282.86615
     3      546.01874      225.15623    -3     3    -3   0.12677   0.19873   0.00880   8.45297   0.10446  89.18890       50925.00       75314.52     1.22847     1.23694   169.75732     0.17845     0.00000   991.99005   991.99005
     6     1026.41040      909.55499    -5     3    -1  -0.28449   0.26456   0.01423  14.49405   0.09196  55.43129       49629.00      134209.52     1.63158     1.92710   101.68526     0.25189     0.00000   925.33154   925.33154
     7      924.96375      683.08246    -6     4    -2   0.09446   0.01149   0.00439  16.08352   0.07268  64.05948        2509.00        4334.52     1.14536     1.41252     0.57431     0.09366     0.00000    62.04247    62.04247
    29       61.79561      407.68506    -1     3    -3   0.25218   0.29395   0.01322   7.85993   0.12446  78.64962        4895.00       13420.52     1.45212     1.78225    85.37410     0.22377     0.00000   823.12921   823.12921
     5      426.60580      666.13727    -3     5    -3   0.46094  -0.13433   0.02544  14.36023   0.08292  62.75059       54949.00      143722.52     1.65888     1.86473   106.36474     0.19704     0.00000  1026.73315  1026.73315
    15      648.66699      500.27039    -6     6    -4   0.14690   0.00343   0.00765  18.19200   0.05795  72.04265       17763.00       37042.52     1.43411     1.55944    58.63333     0.22685     0.00000   859.19214   859.19214
    10      668.66687      570.52777    -5     5    -3   0.08768  -0.03045   0.00474  15.64236   0.07079  68.09021       71501.00      104143.52     1.08365     1.48596     0.02358     0.19440     0.00000   669.00006   669.00006
     8      868.05945      257.36050    -5     3    -3   0.10758   0.17954   0.00706  10.82889   0.08280  87.48439       56943.00      252572.52     1.89674     2.69783   175.33125     0.30509     0.00000   426.80478   426.80478
    12      331.58377      270.36588    -4     6    -6  -0.49789  -0.03282   0.02251  15.68274   0.05785  86.21084       37808.00       80401.52     1.29588     1.73404   177.95584     0.25229     0.00000   331.83252   331.83252
     9      282.60706      288.46619    -3     5    -5  -0.42567  -0.02578   0.01890  12.97681   0.07064  85.10089       27701.00       54886.52     1.08876     1.84071     0.01076     0.19952     0.00000   649.00867   649.00867
    19      258.60965      619.59296    -3     7    -5  -0.05841  -0.38474   0.01069  19.09150   0.05964  65.98080       28587.00       55800.52     1.24283     1.68383     7.44512     0.24663     0.00000   129.68248   129.68248
    17      858.84991      567.55078    -7     5    -3   0.16744  -0.27124   0.01110  18.24998   0.05968  69.38952        9183.00       23620.52     1.08660     1.95011     0.00307     0.30046     0.00000   464.01465   464.01465
    32      474.97601      454.86136    -6     8    -6   0.05110   0.04954   0.00307  21.96915   0.04659  74.55508        3208.00        6805.52     1.07888     1.48291   178.63971     0.16984     0.00000   454.98401   454.98401
    20      463.66852      498.19498    -5     7    -5   0.34341  -0.14517   0.01843  19.31568   0.05462  71.98105       16437.00       33820.52     1.17232     1.75671   177.75955     0.22255     0.00000   439.09061   439.09061
    22      721.83905      228.64973    -8     6    -6   0.05803   0.04373   0.00295  18.98071   0.04655  89.11309       28444.00       42934.52     1.18149     1.29672   178.88129     0.20756     0.00000   753.85913   753.85913
    14      129.38452       39.61798    -3     5    -7  -0.22186   0.22378   0.01026  13.62023   0.05948  99.85736       15280.00       27268.52     1.23089     1.46385     5.05972     0.19488     0.00000   258.90704   258.90704
    18      438.70023       20.99041    -6     6    -8   0.42588   0.29343   0.01935  17.13974   0.04649 102.15972       10955.00       21112.52     1.21618     1.50422   177.96274     0.21535     0.00000   722.16876   722.16876
    31     1012.67609      601.60016    -9     5    -3   0.01675  -0.14327   0.00372  21.60288   0.05069  68.95720         597.00        2293.52     1.21548     1.98690     4.85463     0.10135     0.00000   699.01251   699.01251
    16      753.58331      232.70187    -7     5    -5  -0.32681   0.22186   0.01599  16.22838   0.05456  88.87281        1071.00        3521.52     1.59165     1.73667   167.34094     0.11217     0.00000   475.03647   475.03647
    21      145.60663      355.19016    -3     7    -7  -0.05243  -0.03026   0.00238  18.13807   0.05245  81.32985        1390.00        3590.52     1.29465     1.55768   174.37714     0.10800     0.00000  1013.01398  1013.01398
    23      364.75290      259.68808    -5     7    -7  -0.05000  -0.07697   0.00338  18.42429   0.04893  86.88813        8460.00       22257.52     1.25384     1.89907   179.49049     0.18735     0.00000   145.90982   145.90982
    30      784.09631       52.59938   -10     6    -8  -0.00962  -0.11808   0.00364  21.07645   0.03835 100.14977        6322.00       10907.52     1.12073     1.35658   176.94153     0.15962     0.00000   261.99323   261.99323
    33      300.68024       93.03183    -6     8   -10  -0.07255  -0.02012   0.00296  21.53362   0.03834  97.34157         703.00        2600.52     1.35260     1.73258    15.40494     0.11471     0.00000   971.99530   971.99530
    25      919.89667      273.35977    -9     5    -5   0.12433  -0.10990   0.00599  19.04938   0.04744  86.62950        1032.00        4094.52     1.47920     1.80300   168.09151     0.14741     0.00000   784.09802   784.09802
    26       27.56579      162.42009    -3     7    -9   0.32040   0.03670   0.01081  18.66358   0.04597  92.52935         904.00        2740.52     1.13032     1.85353   179.07518     0.10176     0.00000   301.02499   301.02499
    24      822.85138       31.42524    -9     5    -7   0.19292  -0.15403   0.00837  18.39877   0.04356 101.32818       11806.00       19487.52     1.19994     1.30213   179.87849     0.19028     0.00000   365.09116   365.09116
    27      261.68011       78.65903    -5     7    -9  -0.07697  -0.04581   0.00326  18.84936   0.04354  98.10688        4622.00       13279.52     1.60564     1.77519    19.97726     0.20068     0.00000   920.15741   920.15741
    36      698.71417      226.38464    -9     7    -7   0.07080  -0.11492   0.00486  21.74995   0.04058  89.24851           0.00           0.00     0.00000     0.00000     0.00000     0.00000     0.00000     0.00000     0.00000
    28      454.66714       47.76584    -7     7    -9  -0.00125   0.03151   0.00099  19.88966   0.04053 100.53962        4622.00       11569.52     1.39803     1.73939   169.32475     0.18302     0.00000    27.90861    27.90861
    34      971.56732       85.59610   -11     5    -7  -0.37398  -0.29371   0.01587  21.19158   0.03885  97.70582         522.00        2764.24     1.23885     2.33164     5.66252     0.52932     0.00000   615.84363   615.84363
latticeparameters=   0.54325   0.54483   0.54093  89.94883  90.19265  90.25669
dpsx, dpsy: 179.00000 168.38699
dd, xcent, ycent:      150.57201      540.60303      212.87601
pitch,yaw,roll:  -0.22645   0.61642   0.00000
dev1, dev2, pixdev:   0.01235   0.01210   0.25599
deviatoric strain in crystal reference u1 u2 u3 (*10^3)
   0.45718  -2.24764  -1.67481
  -2.24764   3.36830   0.43733
  -1.67481   0.43733  -3.81243
deviatoric strain in sample reference X Y Z (*10^3)
  -0.25873  -0.86480   0.49562
  -0.86480   4.60998   0.17252
   0.49562   0.17252  -4.33819
deviatoric principal strains (*10^3):   4.75984  -0.34075  -4.40604
deviatoric strain principal axes in sample reference:
  -0.16890   0.98559   0.00949
   0.97768   0.16631   0.12839
  -0.12497  -0.03096   0.99168
deviatoric stress in crystal reference u1 u2 u3 (MPa)
       47.32970     -357.42007     -266.32785
     -357.42007      343.39050       69.54440
     -266.32785       69.54440     -386.88968
deviatoric stress in sample reference X Y Z (MPa)
      -37.85154     -199.04373      -26.81010
     -199.04373      565.35645       21.24815
      -26.81010       21.24815     -523.67438
deviatoric principal stresses (MPa):      625.80096      -96.71623     -525.25421
deviatoric stress principal axes in sample reference:
       -0.28810        0.95729        0.02442
       -0.95625       -0.28895        0.04567
        0.05077       -0.01019        0.99866
total strain in sample reference X Y Z (*10^3)
   1.52539  -0.86480   0.49562
  -0.86480   6.39410   0.17252
   0.49562   0.17252  -2.55408
total principal strains (*10^3):   6.54396   1.44337  -2.62192
total strain principal axes in sample reference:
  -0.16890   0.98559   0.00949
   0.97768   0.16631   0.12839
  -0.12497  -0.03096   0.99168
total stress in crystal reference u1 u2 u3 (MPa)
      571.00409     -357.42007     -266.32785
     -357.42007      867.06488       69.54440
     -266.32785       69.54440      136.78471
total stress in sample reference X Y Z (MPa)
      485.82285     -199.04373      -26.81010
     -199.04373     1089.03088       21.24815
      -26.81010       21.24815        0.00000
total principal stresses (MPa):     1149.47534      426.95816       -1.57981
total stress principal axes in sample reference:
       -0.28810        0.95729        0.02442
       -0.95625       -0.28895        0.04567
        0.05077       -0.01019        0.99866
dilatational strain (*10^-3):        1.78412
hydrostatic stress (MPa):      524.95123
Von Mises stress (MPa):     1007.62195
equivalent strain (*10^-3):        5.30316
equivalent stress (MPa):     1007.62195
maximum resolved shear stress:       16.35399
coordinates of a, b, c in X, Y, Z
   0.44443  -0.20244   0.23852
   0.19254   0.50579   0.06497
  -0.24573   0.03226   0.48110
coordinates of a*, b*, c* in X, Y, Z
   1.50608  -0.67797   0.81472
   0.65608   1.70077   0.22104
  -0.83529   0.10645   1.64671
