\\vmware-host\Shared Folders\Desktop\SiHyperlaueFinal_shielded_results\results_00022.STR
Number of grains:       1
Grain no:       1   Grainlist file index:       1    Number of peaks:      33
no   x(exp)  y(exp)  h  k  l xdev  ydev  angdev  energy  dspace  twotheta  intens   integr  xwidth   ywidth  tilt  rfactor   pearson  xcentroid  ycentroid
     2      392.62012      871.98315    -2     4    -2  -0.33122  -0.11539   0.01922  12.44797   0.11105  53.29205       57321.00      198443.84     1.80961     2.06053   178.02650     0.21369     0.00000   746.61163   746.61163
     5      746.28876      951.30341    -3     3    -1  -0.32668   0.52165   0.02114  11.59387   0.12490  50.69579       48161.00      125232.84     1.67038     1.84598   106.82483     0.19777     0.00000  1026.73767  1026.73767
    13      991.66608      299.62909    -4     2    -2   0.11416  -0.03202   0.00445   8.25880   0.11084  85.25640       48858.00       84693.84     1.23690     1.55402   179.01938     0.22913     0.00000   282.87112   282.87112
     3      546.02045      225.15903    -3     3    -3   0.12596   0.19236   0.00862   8.45294   0.10446  89.18913       39018.00       58029.85     1.21423     1.23505   173.32646     0.17779     0.00000   992.00415   992.00415
     6     1026.41626      909.54626    -5     3    -1  -0.27460   0.27093   0.01388  14.49378   0.09197  55.43160       44777.00      121403.84     1.61365     1.95533   104.75359     0.25024     0.00000   925.33453   925.33453
     7      924.97552      683.07471    -6     4    -2   0.09378   0.01284   0.00435  16.08324   0.07268  64.05990        1064.00        2281.85     1.13971     1.43337     0.46999     0.07608     0.00000    62.03486    62.03486
    36       61.80238      407.68427    -1     3    -3   0.24456   0.29615   0.01303   7.85995   0.12446  78.64954           0.00           0.00     0.00000     0.00000     0.00000     0.00000     0.00000     0.00000     0.00000
     4      426.60785      666.13031    -3     5    -3   0.45861  -0.13463   0.02532  14.35999   0.08292  62.75097       79364.00      261597.84     1.78333     1.87523     2.08963     0.23114     0.00000   546.36847   546.36847
    14      648.66718      500.25699    -6     6    -4   0.15030   0.00892   0.00783  18.19172   0.05795  72.04313       14626.00       25820.85     1.22930     1.45204     5.29934     0.19137     0.00000   258.91034   258.91034
     8      668.66675      570.52289    -5     5    -3   0.09215  -0.03399   0.00499  15.64208   0.07079  68.09069       48735.00      218358.84     1.89684     2.71084   175.34882     0.30520     0.00000   426.81824   426.81824
     9      868.06506      257.34872    -5     3    -3   0.10700   0.18620   0.00720  10.82883   0.08280  87.48471       25208.00       50648.85     1.08886     1.84758   179.95950     0.19831     0.00000   649.00922   649.00922
    11      331.58621      270.36453    -4     6    -6  -0.50087  -0.03302   0.02265  15.68272   0.05785  86.21094       32929.00       86917.84     1.64607     1.91873   112.54952     0.22698     0.00000   868.37421   868.37421
    10      282.60675      288.47165    -3     5    -5  -0.42608  -0.03226   0.01893  12.97681   0.07064  85.10095       63318.00       92613.84     1.08420     1.49368   179.94582     0.19288     0.00000   668.99829   668.99829
    19      258.61035      619.59265    -3     7    -5  -0.06153  -0.38847   0.01084  19.09132   0.05964  65.98103       23959.00       46793.85     1.24042     1.68445     7.31005     0.24005     0.00000   129.70020   129.70020
    17      858.85852      567.54041    -7     5    -3   0.16731  -0.26822   0.01104  18.24969   0.05968  69.38998        8555.00       21758.85     1.08659     1.95320   179.99265     0.29895     0.00000   463.99097   463.99097
    31      474.96835      454.84225    -6     8    -6   0.05923   0.06240   0.00364  21.96890   0.04659  74.55546         575.00        2318.85     1.24875     1.93608     5.51190     0.10985     0.00000   699.02448   699.02448
    20      463.66901      498.18863    -5     7    -5   0.34325  -0.14539   0.01842  19.31543   0.05462  71.98144       14927.00       30577.85     1.17182     1.75232   177.58882     0.21762     0.00000   439.07755   439.07755
    22      721.83936      228.64816    -8     6    -6   0.06057   0.04061   0.00301  18.98062   0.04655  89.11339       25816.00       38816.85     1.18018     1.28846   178.85095     0.20371     0.00000   753.86584   753.86584
    15      129.38367       39.61966    -3     5    -7  -0.21812   0.22966   0.01028  13.62037   0.05948  99.85694       16201.00       34480.85     1.44709     1.58354    49.94495     0.22560     0.00000   859.19623   859.19623
    18      438.69925       20.98453    -6     6    -8   0.42706   0.30204   0.01952  17.13984   0.04649 102.15955       10235.00       20014.85     1.21173     1.50093   179.34753     0.21728     0.00000   722.14960   722.14960
    30     1012.69305      601.59882    -9     5    -3   0.01192  -0.14737   0.00377  21.60258   0.05069  68.95759        5760.00       10122.85     1.11647     1.36151   177.27881     0.15945     0.00000   262.02832   262.02832
    16      753.58624      232.70065    -7     5    -5  -0.32646   0.21825   0.01592  16.22830   0.05456  88.87312        1044.00        3281.85     1.54396     1.72674   169.66539     0.10662     0.00000   475.04697   475.04697
    21      145.60500      355.19366    -3     7    -7  -0.05173  -0.03327   0.00239  18.13810   0.05245  81.32983        1367.00        3655.85     1.33337     1.54788   170.39920     0.11194     0.00000  1013.02368  1013.02368
    23      364.74805      259.68790    -5     7    -7  -0.04553  -0.07869   0.00328  18.42426   0.04893  86.88825        7801.00       20689.85     1.26121     1.89750   179.04890     0.18542     0.00000   145.92471   145.92471
    29      784.10510       52.60352   -10     6    -8  -0.01702  -0.12343   0.00385  21.07648   0.03835 100.14984        4539.00       12241.85     1.52336     1.61876    70.94446     0.22223     0.00000   823.11481   823.11481
    32      300.68063       93.01770    -6     8   -10  -0.07253  -0.00312   0.00291  21.53374   0.03834  97.34139        2965.00        6540.85     1.08457     1.54613   178.59732     0.16476     0.00000   454.99863   454.99863
    24      919.92340      273.34268    -9     5    -5   0.10351  -0.09794   0.00509  19.04927   0.04744  86.62981       10956.00       18177.85     1.19851     1.29163     1.23158     0.18929     0.00000   365.10324   365.10324
    26       27.56651      162.42383    -3     7    -9   0.32267   0.03915   0.01089  18.66375   0.04597  92.52901         892.00        2744.85     1.13170     1.83354   177.14259     0.10509     0.00000   301.02118   301.02118
    25      822.83258       31.44817    -9     5    -7   0.21299  -0.17774   0.00936  18.39881   0.04356 101.32822         959.00        4077.85     1.47342     1.80224   166.85326     0.15219     0.00000   784.09839   784.09839
    27      261.67856       78.66877    -5     7    -9  -0.07465  -0.05161   0.00326  18.84949   0.04354  98.10664        4203.00       12287.85     1.63741     1.81744    79.62077     0.18776     0.00000   920.14648   920.14648
    35      698.72321      226.36259    -9     7    -7   0.06432  -0.09745   0.00425  21.74984   0.04058  89.24880           0.00           0.00     0.00000     0.00000     0.00000     0.00000     0.00000     0.00000     0.00000
    28      454.66779       47.77478    -7     7    -9  -0.00174   0.02429   0.00077  19.88975   0.04053 100.53951        4365.00       10884.85     1.40902     1.73286   169.00162     0.17612     0.00000    27.90675    27.90675
    33      971.56396       85.59167   -11     5    -7  -0.36765  -0.29136   0.01565  21.19159   0.03885  97.70593         732.00        2657.85     1.38975     1.61561    32.76008     0.11861     0.00000   971.98657   971.98657
latticeparameters=   0.54325   0.54485   0.54092  89.94743  90.19335  90.25815
dpsx, dpsy: 179.00000 168.38699
dd, xcent, ycent:      150.57201      540.60303      212.87601
pitch,yaw,roll:  -0.22645   0.61642   0.00000
dev1, dev2, pixdev:   0.01237   0.01212   0.25658
deviatoric strain in crystal reference u1 u2 u3 (*10^3)
   0.45166  -2.26045  -1.68085
  -2.26045   3.39053   0.44942
  -1.68085   0.44942  -3.82901
deviatoric strain in sample reference X Y Z (*10^3)
  -0.26987  -0.86948   0.49793
  -0.86948   4.63859   0.18269
   0.49793   0.18269  -4.35554
deviatoric principal strains (*10^3):   4.78907  -0.35140  -4.42448
deviatoric strain principal axes in sample reference:
  -0.16837   0.98567   0.01052
   0.97770   0.16563   0.12914
  -0.12554  -0.03203   0.99157
deviatoric stress in crystal reference u1 u2 u3 (MPa)
       46.77678     -359.45596     -267.28955
     -359.45596      345.66034       71.46625
     -267.28955       71.46625     -388.56668
deviatoric stress in sample reference X Y Z (MPa)
      -39.37052     -200.32506      -26.76849
     -200.32506      568.86957       22.70713
      -26.76849       22.70713     -525.62860
deviatoric principal stresses (MPa):      629.66901      -98.56582     -527.23273
deviatoric stress principal axes in sample reference:
       -0.28768        0.95739        0.02548
       -0.95642       -0.28858        0.04460
        0.05006       -0.01154        0.99868
total strain in sample reference X Y Z (*10^3)
   1.52091  -0.86948   0.49793
  -0.86948   6.42937   0.18269
   0.49793   0.18269  -2.56476
total principal strains (*10^3):   6.57984   1.43938  -2.63371
total strain principal axes in sample reference:
  -0.16837   0.98567   0.01052
   0.97770   0.16563   0.12914
  -0.12554  -0.03203   0.99157
total stress in crystal reference u1 u2 u3 (MPa)
      572.40540     -359.45596     -267.28955
     -359.45596      871.28894       71.46625
     -267.28955       71.46625      137.06192
total stress in sample reference X Y Z (MPa)
      486.25806     -200.32506      -26.76849
     -200.32506     1094.49817       22.70713
      -26.76849       22.70713        0.00000
total principal stresses (MPa):     1155.29761      427.06281       -1.60413
total stress principal axes in sample reference:
       -0.28768        0.95739        0.02548
       -0.95642       -0.28858        0.04460
        0.05006       -0.01154        0.99868
dilatational strain (*10^-3):        1.79078
hydrostatic stress (MPa):      526.91876
Von Mises stress (MPa):     1013.04071
equivalent strain (*10^-3):        5.33133
equivalent stress (MPa):     1013.04071
maximum resolved shear stress:       16.38017
coordinates of a, b, c in X, Y, Z
   0.44442  -0.20245   0.23851
   0.19253   0.50580   0.06498
  -0.24572   0.03226   0.48108
coordinates of a*, b*, c* in X, Y, Z
   1.50608  -0.67795   0.81472
   0.65608   1.70071   0.22106
  -0.83530   0.10638   1.64674
