SiHyperlaueFinal_00140.tif
number of grains found:       1
grain no:       0     grainlist file index:       1
number of indexed reflections:      32
       x(exp)          y(exp)      h     k     l   ang_dev. xdev(pix) ydev(pix) Ener(keV) 2theta(deg)   chi(deg)intensity  integr    xwidth(pix) ywidth(pix)  tilt(deg)    rfact       pearson  xcentr(pix) ycentr(pix)   strfac  theor_integr  fit_intensity    fit_integr    fit_backg    harm   lin_abs
      392.64072      872.05750    -2     4    -2   0.04125   0.33993  -1.80527  12.47326  53.28255   9.14781   54805.0  113384.2     1.15015     1.93173     1.11776     0.16202     0.00000   392.92670   872.36407            1.7         2167.4        50637.0       127478.0           96.2     1       41.51877
      746.41064      951.33655    -3     3    -1   0.05580  -0.72036  -2.09212  11.61940  50.71794 -13.73568   21628.0   65333.2     1.65449     2.04424     0.00000     0.20521     0.00000   746.71259   951.68915            1.3         1392.1        20467.9        78439.3           96.2     1       51.30682
      991.68872      299.60806    -4     2    -2   0.00685  -0.10454   0.19057   8.25868  85.25551 -27.26558   22708.0   36558.2     1.24842     1.26951     7.60699     0.19115     0.00000   992.04376   299.97937            1.7         1048.4        19590.4        35180.7           96.2     2      140.79108
      546.08636      225.18661    -3     3    -3   0.01986   0.27232   0.46563   8.44877  89.19985  -0.36674   34246.0  126856.2     1.83501     1.88387     3.16774     0.22359     0.00000   546.38342   225.48083            1.2         2623.6        37942.4       148620.8           96.2     4      131.71906
     1026.46423      909.48511    -5     3    -1   0.07012  -1.39781  -2.10684  14.51842  55.44879 -29.42565   26185.0   67148.2     1.70317     1.79671    80.49897     0.20350     0.00000  1026.78870   909.83636            1.0          745.1        21497.3        74539.4           96.2     1       26.36512
      925.03082      683.00519    -6     4    -2   0.03235  -0.58093  -0.83292  16.10802  64.06350 -23.98186   29480.0   79895.2     1.64038     1.94046   138.42159     0.22857     0.00000   925.35266   683.35748            1.2          663.3        24750.3        89267.6           96.2     1       19.32670
      426.66248      666.12738    -3     5    -3   0.05346   0.93401  -0.67044  14.38041  62.74528   7.09998   26303.0  132622.2     1.90963     2.97414   176.50981     0.30843     0.00000   426.90598   666.55103            0.9          465.6        25007.2       160930.8           96.2     1       27.12936
      648.66705      500.21115    -6     6    -4   0.01218   0.23390   0.01707  18.21068  72.04589  -7.22943   18228.0   39081.2     1.09031     1.87579     0.00000     0.19202     0.00000   649.00458   500.78659            0.8          282.7        18038.7        41802.9           96.2     1       13.41356
      668.66718      570.49048    -5     5    -3   0.00978   0.12008  -0.26281  15.66392  68.09024  -8.56361   41666.0   62933.2     1.08486     1.54736   179.96335     0.19120     0.00000   669.00531   570.82062            0.8          273.4        36087.4        68641.3           96.2     1       21.00963
      868.13629      257.27411    -5     3    -3   0.01630  -0.01182   0.53347  10.82616  87.50058 -20.50160   11608.0   34563.2     1.75388     1.92953    16.69597     0.19956     0.00000   868.33423   257.69833            0.9          258.7        10629.2        40758.2           96.2     1       63.33245
      331.60150      270.39456    -4     6    -6   0.01226  -0.23284   0.20502  15.67335  86.20680  13.36347   24930.0   50607.2     1.25342     1.69980   177.91104     0.23689     0.00000   331.87708   270.80374            0.8          212.8        21279.9        51372.2           96.2     1       20.97189
      282.61838      288.49585    -3     5    -5   0.00914  -0.14972   0.20666  12.96834  85.09707  16.34132   29044.0   48332.2     1.20796     1.50522   178.90446     0.21049     0.00000   282.90149   288.80927            0.8          186.5        24727.9        50945.1           96.2     1       36.95862
      258.62564      619.60455    -3     7    -5   0.03466   0.62321  -0.68917  19.10771  65.95964  17.58699   11663.0   20119.2     1.19101     1.42740     3.30167     0.17676     0.00000   258.94128   620.00812            0.6          184.2         9919.2        19107.5           96.2     1       11.63381
      858.91016      567.49402    -7     5    -3   0.01933  -0.25795  -0.58256  18.27600  69.37718 -20.18942   11192.0   26485.2     1.50884     1.69398    68.73924     0.21676     0.00000   859.20642   567.92645            0.6          165.8         9463.6        27407.9           96.2     1       13.27187
      475.06757      454.84036    -6     8    -6   0.01730   0.31885   0.15865  21.98115  74.55934   4.10696     806.0    2963.2     1.53101     1.80874   177.60477     0.10391     0.00000   475.05695   455.05887            0.6          138.5          627.7         1969.6           96.2     1        7.71534
      463.67090      498.15738    -5     7    -5   0.03863   0.73432  -0.11306  19.33179  71.97504   4.81812    7090.0   17432.2     1.09262     1.95020     0.01351     0.29762     0.00000   464.01978   498.39905            0.6          118.9         7013.5        16933.6           96.2     1       11.24012
      721.87531      228.63075    -8     6    -6   0.01284   0.11784   0.36522  18.97577  89.11708 -11.68451    7850.0   16286.2     1.24581     1.57427   177.80260     0.20585     0.00000   722.15814   229.09506            0.6          107.6         6593.0        14651.3           96.2     1       11.87451
      129.38390       39.63154    -3     5    -7   0.02616  -0.72762   0.21344  13.59065  99.87047  25.19386   14742.0   28494.2     1.21678     1.68539     5.96348     0.21084     0.00000   129.73196    39.94530            0.6          107.3        12543.4        29147.0           96.2     1       32.12416
      438.70050       20.96552    -6     6    -8   0.02252   0.49366   0.34602  17.11051 102.17846   6.75193   11915.0   24489.2     1.17178     1.72461   177.59973     0.21839     0.00000   439.08240    21.31945            0.6          103.6        10258.5        23490.2           96.2     1       16.14278
     1012.72095      601.52582    -9     5    -3   0.03306  -0.71876  -0.66955  21.62805  68.95403 -28.53746    1089.0    3141.2     1.36230     1.64665   169.33475     0.10393     0.00000  1012.99866   602.03931            0.5          103.4          821.2         2087.2           96.2     1        8.08738
      753.60260      232.68770    -7     5    -5   0.02084  -0.27660   0.53476  16.22298  88.88812 -13.65951   19514.0   28145.2     1.15459     1.24839   179.25851     0.18077     0.00000   753.89697   233.09174            0.6           86.7        17077.0        27890.3           96.2     1       18.92081
      145.61575      355.24261    -3     7    -7   0.01064   0.21602   0.18449  18.12395  81.32484  24.16663    6482.0   16287.2     1.23933     1.88183   179.17821     0.17150     0.00000   145.92738   355.84067            0.5           85.7         6041.8        15966.2           96.2     1       13.60487
      364.76788      259.68674    -5     7    -7   0.01159   0.21227   0.19507  18.41407  86.88330  11.30285    8354.0   14338.2     1.20112     1.33749     2.65113     0.17814     0.00000   365.11905   260.12277            0.5           64.0         7127.7        12974.5           96.2     1       12.97905
      784.15686       52.55459   -10     6    -8   0.00702   0.16369   0.08796  21.05440 100.14514 -15.39856     803.0    3706.2     1.52479     1.82603   170.73528     0.14187     0.00000   784.07916    53.08840            0.5           61.2          652.6         2058.7           96.2     1        8.74714
      300.68216       93.01773    -6     8   -10   0.00493  -0.07850   0.12023  21.50108  97.34140  15.36373     729.0    2420.2     1.11952     1.79239   175.56789     0.10457     0.00000   301.00598    93.07913            0.5           61.1          557.5         1267.6           96.2     1        8.22729
      919.97437      273.23087    -9     5    -5   0.00814  -0.05404   0.26201  19.04788  86.63054 -23.42401    2874.0   10075.2     1.78179     1.84851    45.11577     0.17067     0.00000   920.14508   273.95508            0.4           58.4         2552.7         9526.5           96.2     1       11.74214
       27.58563      162.49283    -3     7    -9   0.00867  -0.17293   0.22520  18.62932  92.52676  30.33544    3704.0    8890.2     1.37423     1.62705   166.60199     0.16825     0.00000    27.93155   162.97334            0.4           50.8         2969.7         7524.0           96.2     1       12.53982
      822.89246       31.33828    -9     5    -7   0.01617   0.42558   0.05790  18.37771 101.32463 -17.70539    3364.0   10085.2     1.50838     1.91219    74.33635     0.19219     0.00000   823.12958    32.04539            0.4           42.9         2658.6         8688.7           96.2     1       13.05530
      261.67886       78.66364    -5     7    -9   0.00673  -0.16870   0.04370  18.81856  98.10406  17.71084    4796.0    8351.2     1.11913     1.32268   176.34587     0.14613     0.00000   262.00180    79.13028            0.4           42.7         4102.7         6881.3           96.2     1       12.17029
      698.75018      226.20305    -9     7    -7   0.01372   0.14936   0.37087  21.74377  89.25276 -10.22719     416.0    2101.2     1.30613     2.05347     4.38958     0.09735     0.00000   699.05029   227.01501            0.4           36.7          308.1          936.4           96.2     1        7.96275
      454.66644       47.75837    -7     7    -9   0.00591   0.10610   0.12753  19.86094 100.54206   5.70461    2497.0    5535.2     1.08403     1.49741   177.53348     0.15252     0.00000   454.99844    48.18079            0.4           35.2         2060.2         3789.3           96.2     1       10.38020
      971.57977       85.51363   -11     5    -7   0.00507  -0.14484  -0.01568  21.17366  97.69257 -26.07488     589.0    2355.2     1.32902     1.75976    11.89024     0.10962     0.00000   971.99243    86.05436            0.3           31.5          403.7         1069.8           96.2     1        8.60398
 dev1, dev2, pixdev=    0.0328000    0.0262700    0.0207300
matrix X  Y  Z -> h  k  l
   0.44379  -0.20019   0.24047
   0.19302   0.50361   0.06302
  -0.24626   0.03397   0.48275
matrix h  k  l -> X  Y  Z
   1.50513   0.65466  -0.83521
  -0.67896   1.70801   0.11522
   0.81558   0.21375   1.63729
Number of missing reflections:      11
x(exp)   y(exp)   h  k  l   energy(keV)   theta(deg)    strfac    theor_integr
      546.35870      225.65224    -4     4    -4  11.26804  89.16964        1.26000      452.52399
      546.35870      225.65224    -5     5    -5  14.08505  89.16964        0.67400      129.38400
      991.58417      299.79865    -8     4    -4  16.51913  85.24422        0.79700      189.46899
      546.35870      225.65224    -7     7    -7  19.71907  89.16964        0.41100       48.06600
      200.39090      748.63367    -2     6    -4  17.06951  60.06795        1.15300      765.57501
       62.30328      408.26852    -1     3    -3   7.85425  78.63240        1.28600      552.78998
        1.71122       14.93719    -2     4    -6  11.10786 100.55374        1.15300      363.42200
        7.14610      891.71881    -1     7    -5  21.00924  56.14808        0.67400      304.39499
      204.78168      323.68454    -4     8    -8  20.66571  83.04883        0.58900      107.12900
      634.56024      454.13745    -7     7    -5  20.85711  74.75640        0.46800       79.91400
      616.95453       49.10215    -9     7    -9  21.55710 100.58151        0.32400       28.72500
Rfactor:      0.62287003
Rotangle(deg):       35.22525
Rodrigues vector:       -0.01472        0.24668        0.19928       35.22525
Quaternion:        0.95312       -0.01403        0.23512        0.18994
Euler angles:        4.02554       24.39526       23.50666
orsnr, orsirxy, orsirxz, orsiryz:  27.24625 -24.28008 -27.02702   4.02554
 Rotation matrix, unit cell to sample:
   0.81728   0.35548  -0.45352
  -0.36868   0.92745   0.06257
   0.44286   0.11607   0.88905
 Rotation matrix, sample to unit cell:
   0.81728  -0.36868   0.44286
   0.35548   0.92745   0.11607
  -0.45352   0.06257   0.88905
Sum of integrated intensities:   974292.81250
Average integrated intensity per peak:    32476.42773
scale:    0.0106500
depth:    -0.835760
Unindexed reflections:       0
Xstage position:      6000.00
Ystage position:      11560.0
X map position:     140
Y map position:       1
Izero:       2580.0000
Channel A:      0.00000000
Channel B:      0.00000000
Channel C:      0.00000000
Channel D:      0.00000000
Channel E:      0.00000000
Exposure:      2.50000
Average intensity of the image :       105.27490
Average background of the image:       103.70063
