\\vmware-host\Shared Folders\Desktop\SiHyperlaueFinal_shielded_results\results_00059.STR
Number of grains:       1
Grain no:       1   Grainlist file index:       1    Number of peaks:      33
no   x(exp)  y(exp)  h  k  l xdev  ydev  angdev  energy  dspace  twotheta  intens   integr  xwidth   ywidth  tilt  rfactor   pearson  xcentroid  ycentroid
     2      392.62650      871.98193    -2     4    -2  -0.32595  -0.12151   0.01895  12.44804   0.11105  53.29230       59598.00      206383.42     1.78175     2.07451   178.41335     0.21147     0.00000   746.63000   746.63000
     5      746.31696      951.27380    -3     3    -1  -0.34502   0.52342   0.02207  11.59373   0.12490  50.69693       49314.00      127869.42     1.61481     1.93153   110.54685     0.18363     0.00000  1026.75391  1026.75391
    13      991.67102      299.61557    -4     2    -2   0.12114  -0.04976   0.00485   8.25867   0.11084  85.25823       49204.00       85264.42     1.22695     1.56788   179.17673     0.22717     0.00000   282.88519   282.88519
     3      546.03937      225.13989    -3     3    -3   0.11142   0.19750   0.00830   8.45289   0.10446  89.19005       38243.00       58380.42     1.23534     1.24620    16.03225     0.18667     0.00000   992.00842   992.00842
     6     1026.43225      909.51068    -5     3    -1  -0.27772   0.26646   0.01396  14.49345   0.09197  55.43332       45996.00      123178.42     1.75279     1.78506   150.30264     0.25419     0.00000   925.34949   925.34949
     7      924.98163      683.02936    -6     4    -2   0.09847   0.02824   0.00458  16.08298   0.07268  64.06146        1011.00        2321.42     1.13366     1.48050     0.09344     0.08336     0.00000    62.04163    62.04163
    35       61.82649      407.68222    -1     3    -3   0.22956   0.30130   0.01268   7.85999   0.12446  78.64933           0.00           0.00     0.00000     0.00000     0.00000     0.00000     0.00000     0.00000     0.00000
     4      426.62253      666.12122    -3     5    -3   0.45354  -0.13304   0.02504  14.36002   0.08292  62.75133       80003.00      264639.41     1.80156     1.87229     8.78790     0.23100     0.00000   546.37970   546.37970
    14      648.66724      500.23206    -6     6    -4   0.15776   0.01774   0.00823  18.19161   0.05795  72.04410       14559.00       25392.42     1.21951     1.45480     4.69826     0.18631     0.00000   258.90833   258.90833
     8      668.66687      570.50549    -5     5    -3   0.10008  -0.03380   0.00540  15.64198   0.07079  68.09168       47724.00      221844.42     1.90308     2.78738   175.15404     0.30545     0.00000   426.82739   426.82739
     9      868.09259      257.30664    -5     3    -3   0.08814   0.20179   0.00715  10.82869   0.08280  87.48634       24642.00       50838.42     1.09001     1.86503   179.99532     0.19440     0.00000   649.00201   649.00201
    11      331.58954      270.36215    -4     6    -6  -0.49937  -0.03665   0.02259  15.68270   0.05785  86.21132       31677.00       87740.42     1.71408     1.91877   111.16152     0.22469     0.00000   868.38916   868.38916
    10      282.61057      288.46509    -3     5    -5  -0.42459  -0.02998   0.01886  12.97680   0.07064  85.10121       62412.00       92917.42     1.08466     1.52800     0.01749     0.19401     0.00000   669.00140   669.00140
    19      258.61404      619.58984    -3     7    -5  -0.05441  -0.38711   0.01068  19.09143   0.05964  65.98104       23619.00       46697.42     1.24486     1.69806     6.85235     0.23669     0.00000   129.69226   129.69226
    17      858.86835      567.52618    -7     5    -3   0.16702  -0.27954   0.01125  18.24944   0.05968  69.39143        8719.00       21878.42     1.08798     1.94866   179.92870     0.30181     0.00000   464.02197   464.02197
    31      474.98431      454.83087    -6     8    -6   0.05043   0.06447   0.00330  21.96887   0.04659  74.55602         547.00        2252.42     1.24686     1.98390     7.00365     0.10143     0.00000   699.04602   699.04602
    20      463.66995      498.17047    -5     7    -5   0.34999  -0.13600   0.01871  19.31542   0.05462  71.98195       15479.00       31355.42     1.17400     1.72969   177.78075     0.22264     0.00000   439.07410   439.07410
    22      721.83997      228.64249    -8     6    -6   0.06594   0.02549   0.00306  18.98043   0.04655  89.11473       26531.00       39154.42     1.16796     1.28079   178.91479     0.19746     0.00000   753.88495   753.88495
    15      129.37405       39.61779    -3     5    -7  -0.20933   0.22740   0.01000  13.62034   0.05948  99.85718       15844.00       34535.42     1.46113     1.60709    69.28662     0.22767     0.00000   859.19171   859.19171
    18      438.70078       20.96974    -6     6    -8   0.42581   0.30230   0.01948  17.13972   0.04649 102.16045       10454.00       20294.42     1.22357     1.50343   177.58893     0.21510     0.00000   722.14728   722.14728
    30     1012.70709      601.58429    -9     5    -3   0.01041  -0.16524   0.00420  21.60218   0.05069  68.95933        5866.00        9991.42     1.11496     1.34869   177.16669     0.15161     0.00000   262.02191   262.02191
    16      753.58960      232.69441    -7     5    -5  -0.32337   0.20248   0.01559  16.22813   0.05456  88.87452        1001.00        3323.42     1.52903     1.74467   170.10040     0.11107     0.00000   475.05930   475.05930
    21      145.60725      355.18311    -3     7    -7  -0.04664  -0.02232   0.00206  18.13814   0.05245  81.32978        1384.00        3550.42     1.35136     1.47912   165.11107     0.10860     0.00000  1013.02039  1013.02039
    23      364.75110      259.68671    -5     7    -7  -0.04400  -0.08473   0.00339  18.42423   0.04893  86.88871        7827.00       20633.42     1.25553     1.89763   179.73956     0.17991     0.00000   145.91821   145.91821
    29      784.12549       52.57800   -10     6    -8  -0.03173  -0.12504   0.00406  21.07623   0.03835 100.15148        4477.00       12570.42     1.46469     1.83851    86.62996     0.22021     0.00000   823.14032   823.14032
    33      300.67761       93.01300    -6     8   -10  -0.06842  -0.00655   0.00275  21.53366   0.03834  97.34190         709.00        2770.42     1.37723     1.74053    14.52995     0.12200     0.00000   971.97656   971.97656
    25      919.90521      273.30008    -9     5    -5   0.13163  -0.08384   0.00585  19.04900   0.04744  86.63154         942.00        4003.42     1.50153     1.83118   166.22246     0.14573     0.00000   784.07806   784.07806
    26       27.56976      162.42989    -3     7    -9   0.32223   0.03426   0.01087  18.66375   0.04597  92.52895         833.00        2595.42     1.14671     1.83248   177.18799     0.10161     0.00000   300.98108   300.98108
    24      822.86719       31.38826    -9     5    -7   0.18486  -0.14727   0.00801  18.39858   0.04356 101.32996       10786.00       17781.42     1.20672     1.29861     1.33870     0.18217     0.00000   365.10904   365.10904
    27      261.67810       78.66262    -5     7    -9  -0.07356  -0.05268   0.00323  18.84943   0.04354  98.10709        4042.00       12391.42     1.61318     1.83968    16.07008     0.19491     0.00000   920.13409   920.13409
    36      698.71985      226.34990    -9     7    -7   0.07335  -0.10465   0.00470  21.74964   0.04058  89.25009           0.00           0.00     0.00000     0.00000     0.00000     0.00000     0.00000     0.00000     0.00000
    28      454.66766       47.77066    -7     7    -9  -0.00068   0.01405   0.00044  19.88962   0.04053 100.54041        4337.00       10856.42     1.40013     1.72064   168.47748     0.18005     0.00000    27.90424    27.90424
    32      971.55963       85.55369   -11     5    -7  -0.35220  -0.28782   0.01514  21.19128   0.03885  97.70789        2964.00        6342.42     1.07937     1.52034     2.35854     0.16047     0.00000   455.00839   455.00839
latticeparameters=   0.54325   0.54484   0.54093  89.94832  90.19325  90.25787
dpsx, dpsy: 179.00000 168.38699
dd, xcent, ycent:      150.57201      540.60303      212.87601
pitch,yaw,roll:  -0.22645   0.61642   0.00000
dev1, dev2, pixdev:   0.01230   0.01209   0.25617
deviatoric strain in crystal reference u1 u2 u3 (*10^3)
   0.45800  -2.25794  -1.67998
  -2.25794   3.37611   0.44173
  -1.67998   0.44173  -3.82100
deviatoric strain in sample reference X Y Z (*10^3)
  -0.26251  -0.87166   0.49553
  -0.87166   4.62452   0.17445
   0.49553   0.17445  -4.34889
deviatoric principal strains (*10^3):   4.77618  -0.34631  -4.41675
deviatoric strain principal axes in sample reference:
  -0.16953   0.98548   0.00963
   0.97759   0.16692   0.12830
  -0.12483  -0.03117   0.99169
deviatoric stress in crystal reference u1 u2 u3 (MPa)
       47.41732     -359.05762     -267.15118
     -359.05762      344.18863       70.24371
     -267.15118       70.24371     -387.75793
deviatoric stress in sample reference X Y Z (MPa)
      -38.43188     -200.27545      -27.06221
     -200.27545      567.28082       21.53159
      -27.06221       21.53159     -525.00098
deviatoric principal stresses (MPa):      628.21198      -97.75526     -526.60870
deviatoric stress principal axes in sample reference:
       -0.28855        0.95715        0.02464
       -0.95610       -0.28942        0.04597
        0.05114       -0.01029        0.99864
total strain in sample reference X Y Z (*10^3)
   1.52612  -0.87166   0.49553
  -0.87166   6.41316   0.17445
   0.49553   0.17445  -2.56026
total principal strains (*10^3):   6.56481   1.44232  -2.62811
total strain principal axes in sample reference:
  -0.16953   0.98548   0.00963
   0.97759   0.16692   0.12830
  -0.12483  -0.03117   0.99169
total stress in crystal reference u1 u2 u3 (MPa)
      572.41827     -359.05762     -267.15118
     -359.05762      869.18958       70.24371
     -267.15118       70.24371      137.24303
total stress in sample reference X Y Z (MPa)
      486.56909     -200.27545      -27.06221
     -200.27545     1092.28186       21.53159
      -27.06221       21.53159        0.00000
total principal stresses (MPa):     1153.21301      427.24570       -1.60771
total stress principal axes in sample reference:
       -0.28855        0.95715        0.02464
       -0.95610       -0.28942        0.04597
        0.05114       -0.01029        0.99864
dilatational strain (*10^-3):        1.78864
hydrostatic stress (MPa):      526.28363
Von Mises stress (MPa):     1011.07721
equivalent strain (*10^-3):        5.31911
equivalent stress (MPa):     1011.07721
maximum resolved shear stress:       16.68332
coordinates of a, b, c in X, Y, Z
   0.44443  -0.20243   0.23852
   0.19252   0.50580   0.06497
  -0.24574   0.03226   0.48109
coordinates of a*, b*, c* in X, Y, Z
   1.50608  -0.67791   0.81476
   0.65605   1.70077   0.22106
  -0.83532   0.10641   1.64672
