\\vmware-host\Shared Folders\Desktop\SiHyperlaueFinal_shielded_results\results_00068.STR
Number of grains:       1
Grain no:       1   Grainlist file index:       1    Number of peaks:      33
no   x(exp)  y(exp)  h  k  l xdev  ydev  angdev  energy  dspace  twotheta  intens   integr  xwidth   ywidth  tilt  rfactor   pearson  xcentroid  ycentroid
     2      392.62915      871.97394    -2     4    -2  -0.32496  -0.10353   0.01882  12.44769   0.11105  53.29187       43098.00      151326.34     1.78077     2.07432   178.62456     0.20549     0.00000   746.64093   746.64093
     5      746.31818      951.25195    -3     3    -1  -0.33766   0.54702   0.02193  11.59345   0.12490  50.69693       42191.00      109235.34     1.69261     1.83939   133.57379     0.20082     0.00000  1026.76270  1026.76270
    13      991.67828      299.61865    -4     2    -2   0.11228  -0.06341   0.00468   8.25859   0.11084  85.25884       39466.00       68964.34     1.22671     1.57835   179.17227     0.22388     0.00000   282.88367   282.88367
     3      546.04590      225.14432    -3     3    -3   0.10700   0.18797   0.00793   8.45274   0.10446  89.19039       30773.00       47628.34     1.23864     1.24211   154.53844     0.18764     0.00000   992.01837   992.01837
     6     1026.44019      909.50067    -5     3    -1  -0.27884   0.26530   0.01400  14.49313   0.09197  55.43384       40912.00      109143.34     1.68026     1.90201    26.32873     0.23691     0.00000   925.34637   925.34637
     7      925.00470      683.03430    -6     4    -2   0.08114   0.01445   0.00377  16.08265   0.07268  64.06194         464.00        1448.34     1.16957     1.43072   175.13000     0.07270     0.00000    62.00564    62.00564
    36       61.80026      407.69574    -1     3    -3   0.25247   0.28967   0.01315   7.85978   0.12446  78.64924           0.00           0.00     0.00000     0.00000     0.00000     0.00000     0.00000     0.00000     0.00000
     4      426.62860      666.11560    -3     5    -3   0.45120  -0.12574   0.02489  14.35961   0.08292  62.75123       58454.00      196988.34     1.80793     1.87484    14.81849     0.22912     0.00000   546.37805   546.37805
    14      648.66705      500.22787    -6     6    -4   0.16293   0.01714   0.00849  18.19118   0.05795  72.04439       13798.00       24322.34     1.21733     1.45530     4.68744     0.18908     0.00000   258.90820   258.90820
     8      668.66711      570.49908    -5     5    -3   0.10549  -0.03166   0.00568  15.64160   0.07079  68.09194       39872.00      188971.34     1.90421     2.82083   175.34254     0.30632     0.00000   426.84564   426.84564
    11      868.09668      257.29474    -5     3    -3   0.08432   0.20549   0.00717  10.82857   0.08280  87.48685       21490.00       60242.34     1.66696     1.98294    61.19710     0.21761     0.00000   868.37689   868.37689
    10      331.59033      270.35962    -4     6    -6  -0.49924  -0.03747   0.02258  15.68234   0.05785  86.21153       55043.00       82221.34     1.08504     1.53747     0.04208     0.19252     0.00000   669.00342   669.00342
     9      282.61075      288.45975    -3     5    -5  -0.42440  -0.02738   0.01884  12.97650   0.07065  85.10138       22755.00       47251.34     1.08941     1.86483   179.99403     0.19499     0.00000   649.00128   649.00128
    19      258.61481      619.58929    -3     7    -5  -0.05472  -0.38300   0.01058  19.09087   0.05964  65.98085       19657.00       38841.34     1.24715     1.69286     7.16135     0.23010     0.00000   129.71397   129.71397
    17      858.86877      567.51233    -7     5    -3   0.17167  -0.27357   0.01130  18.24909   0.05968  69.39189        8195.00       20217.34     1.08791     1.95196     0.06258     0.29594     0.00000   464.01044   464.01044
    31      474.99677      454.85312    -6     8    -6   0.04140   0.03902   0.00247  21.96830   0.04659  74.55621         540.00        2199.34     1.22282     1.96289     5.55365     0.10100     0.00000   699.03607   699.03607
    20      463.67029      498.16705    -5     7    -5   0.35318  -0.13505   0.01887  19.31490   0.05462  71.98209       13942.00       28065.34     1.17295     1.71756   177.77921     0.21969     0.00000   439.07932   439.07932
    22      721.85626      228.64171    -8     6    -6   0.05130   0.01984   0.00238  18.98017   0.04655  89.11514       23589.00       34952.34     1.16603     1.27936   179.06100     0.19585     0.00000   753.87585   753.87585
    15      129.37772       39.61852    -3     5    -7  -0.21429   0.22500   0.01009  13.62011   0.05948  99.85727       14324.00       31869.34     1.52837     1.57542   122.95687     0.22588     0.00000   859.19629   859.19629
    18      438.70056       20.96038    -6     6    -8   0.42616   0.30824   0.01958  17.13951   0.04649 102.16066        9442.00       18926.34     1.22459     1.53301   179.24687     0.21562     0.00000   722.15930   722.15930
    30     1012.69812      601.57904    -9     5    -3   0.02263  -0.17191   0.00449  21.60181   0.05069  68.95996        5299.00        9273.34     1.11869     1.35435   178.96375     0.15111     0.00000   262.00763   262.00763
    16      753.59033      232.69420    -7     5    -5  -0.32267   0.19595   0.01548  16.22791   0.05456  88.87495         985.00        3285.34     1.55456     1.74373     9.50797     0.11233     0.00000   475.03757   475.03757
    21      145.61490      355.20224    -3     7    -7  -0.05597  -0.04178   0.00266  18.13768   0.05245  81.32981        1293.00        3411.34     1.30363     1.59072   174.40192     0.10481     0.00000  1013.01520  1013.01520
    23      364.75439      259.68365    -5     7    -7  -0.04605  -0.08536   0.00347  18.42382   0.04893  86.88895        7484.00       19274.34     1.23691     1.89440   179.21925     0.17862     0.00000   145.93062   145.93062
    29      784.10309       52.58225   -10     6    -8  -0.01149  -0.13482   0.00415  21.07609   0.03835 100.15182        3978.00       11527.34     1.50048     1.82947    52.25905     0.21003     0.00000   823.13519   823.13519
    33      300.68433       92.97531    -6     8   -10  -0.07509   0.02796   0.00315  21.53329   0.03834  97.34209         635.00        2538.34     1.43429     1.59399     0.00000     0.11699     0.00000   971.97675   971.97675
    24      919.92804      273.29654    -9     5    -5   0.10836  -0.08939   0.00511  19.04880   0.04744  86.63208       10027.00       16516.34     1.19461     1.30900     0.87260     0.17787     0.00000   365.08777   365.08777
    26       27.57753      162.43401    -3     7    -9   0.31163   0.02949   0.01050  18.66337   0.04597  92.52898         819.00        2470.34     1.13292     1.77693   175.95500     0.09908     0.00000   301.00836   301.00836
    25      822.86816       31.36375    -9     5    -7   0.18054  -0.12830   0.00760  18.39848   0.04356 101.33030         916.00        3825.34     1.47968     1.82612   171.92352     0.13832     0.00000   784.09253   784.09253
    27      261.68073       78.65713    -5     7    -9  -0.07646  -0.05005   0.00330  18.84911   0.04354  98.10726        3659.00       11547.34     1.65155     1.83531    18.72827     0.18983     0.00000   920.13293   920.13293
    35      698.71649      226.33916    -9     7    -7   0.07849  -0.10013   0.00476  21.74933   0.04058  89.25049           0.00           0.00     0.00000     0.00000     0.00000     0.00000     0.00000     0.00000     0.00000
    28      454.66693       47.76657    -7     7    -9   0.00041   0.01440   0.00045  19.88936   0.04053 100.54065        4012.00        9983.34     1.37918     1.71264   168.96313     0.17538     0.00000    27.91471    27.91471
    32      971.51489       85.52897   -11     5    -7  -0.31338  -0.27104   0.01373  21.19119   0.03885  97.70836        2804.00        5791.34     1.07858     1.51895     1.19384     0.14447     0.00000   454.97830   454.97830
latticeparameters=   0.54324   0.54486   0.54092  89.94928  90.19471  90.25829
dpsx, dpsy: 179.00000 168.38699
dd, xcent, ycent:      150.57201      540.60303      212.87601
pitch,yaw,roll:  -0.22645   0.61642   0.00000
dev1, dev2, pixdev:   0.01221   0.01201   0.25343
deviatoric strain in crystal reference u1 u2 u3 (*10^3)
   0.44242  -2.26168  -1.69262
  -2.26168   3.40811   0.43330
  -1.69262   0.43330  -3.83726
deviatoric strain in sample reference X Y Z (*10^3)
  -0.26232  -0.85759   0.48798
  -0.85759   4.65199   0.17548
   0.48798   0.17548  -4.37639
deviatoric principal strains (*10^3):   4.79826  -0.34311  -4.44188
deviatoric strain principal axes in sample reference:
  -0.16613   0.98605   0.01002
   0.97851   0.16359   0.12551
  -0.12212  -0.03066   0.99204
deviatoric stress in crystal reference u1 u2 u3 (MPa)
       45.84307     -359.65216     -269.16055
     -359.65216      347.45398       68.90386
     -269.16055       68.90386     -389.40100
deviatoric stress in sample reference X Y Z (MPa)
      -37.83758     -198.93948      -28.39765
     -198.93948      570.21411       21.38372
      -28.39765       21.38372     -528.48047
deviatoric principal stresses (MPa):      630.22473      -96.11410     -530.21460
deviatoric stress principal axes in sample reference:
       -0.28628        0.95783        0.02469
       -0.95664       -0.28718        0.04863
        0.05367       -0.00970        0.99851
total strain in sample reference X Y Z (*10^3)
   1.53817  -0.85759   0.48798
  -0.85759   6.45248   0.17548
   0.48798   0.17548  -2.57590
total principal strains (*10^3):   6.59876   1.45739  -2.64139
total strain principal axes in sample reference:
  -0.16613   0.98605   0.01002
   0.97851   0.16359   0.12551
  -0.12212  -0.03066   0.99204
total stress in crystal reference u1 u2 u3 (MPa)
      574.32355     -359.65216     -269.16055
     -359.65216      875.93445       68.90386
     -269.16055       68.90386      139.07947
total stress in sample reference X Y Z (MPa)
      490.64291     -198.93948      -28.39765
     -198.93948     1098.69458       21.38372
      -28.39765       21.38372        0.00000
total principal stresses (MPa):     1158.70532      432.36636       -1.73410
total stress principal axes in sample reference:
       -0.28628        0.95783        0.02469
       -0.95664       -0.28718        0.04863
        0.05367       -0.00970        0.99851
dilatational strain (*10^-3):        1.80049
hydrostatic stress (MPa):      529.77917
Von Mises stress (MPa):     1015.53699
equivalent strain (*10^-3):        5.34611
equivalent stress (MPa):     1015.53699
maximum resolved shear stress:       14.98896
coordinates of a, b, c in X, Y, Z
   0.44441  -0.20244   0.23851
   0.19252   0.50581   0.06499
  -0.24574   0.03225   0.48106
coordinates of a*, b*, c* in X, Y, Z
   1.50606  -0.67792   0.81479
   0.65601   1.70068   0.22112
  -0.83533   0.10638   1.64672
