\\vmware-host\Shared Folders\Desktop\SiHyperlaueFinal_shielded_results\results_00149.STR
Number of grains:       1
Grain no:       1   Grainlist file index:       1    Number of peaks:      32
no   x(exp)  y(exp)  h  k  l xdev  ydev  angdev  energy  dspace  twotheta  intens   integr  xwidth   ywidth  tilt  rfactor   pearson  xcentroid  ycentroid
     4      392.64078      872.03088    -2     4    -2  -0.29176  -0.12490   0.01703  12.44963   0.11104  53.29019       34089.00      124379.34     1.83600     1.88145     0.50177     0.22318     0.00000   546.38776   546.38776
     8      746.41107      951.29724    -3     3    -1  -0.39969   0.47754   0.02447  11.59418   0.12489  50.69809       17534.00       37937.34     1.08951     1.88028     0.00000     0.18880     0.00000   649.00397   649.00397
    13      991.69232      299.60492    -4     2    -2   0.15796  -0.10509   0.00678   8.25844   0.11084  85.26220       11365.00       19826.35     1.18856     1.44653     3.07139     0.17657     0.00000   258.93164   258.93164
     3      546.08679      225.17706    -3     3    -3   0.08292   0.16481   0.00664   8.45322   0.10445  89.18977       21773.00       35498.34     1.25510     1.27888     4.87570     0.19277     0.00000   992.04694   992.04694
     6     1026.48645      909.46490    -5     3    -1  -0.26718   0.25113   0.01338  14.49307   0.09196  55.43655       28372.00       76920.34     1.68827     1.85960   174.00166     0.25246     0.00000   925.35236   925.35236
     5      925.02661      682.97833    -6     4    -2   0.10382   0.03440   0.00484  16.08285   0.07267  64.06414       24498.00       63015.34     1.59241     1.91110   163.37383     0.21759     0.00000  1026.80261  1026.80261
     2      426.66608      666.12598    -3     5    -3   0.45010  -0.09948   0.02478  14.36155   0.08291  62.74925       18663.00       58202.34     1.65026     2.06703   178.86703     0.19710     0.00000   746.72021   746.72021
    12      648.66687      500.20197    -6     6    -4   0.18773   0.04569   0.00985  18.19241   0.05794  72.04431       28178.00       47166.34     1.20904     1.50619   178.91614     0.21143     0.00000   282.89917   282.89917
     7      668.66681      570.48590    -5     5    -3   0.13176  -0.01845   0.00701  15.64268   0.07079  68.09205       25094.00      127961.34     1.90891     2.98697   176.75858     0.30869     0.00000   426.91287   426.91287
    14      868.14197      257.24683    -5     3    -3   0.07814   0.21231   0.00724  10.82855   0.08280  87.48942       10906.00       26135.35     1.51960     1.70245    69.48638     0.21536     0.00000   859.20697   859.20697
     9      331.60034      270.38754    -4     6    -6  -0.48219  -0.02029   0.02179  15.68390   0.05784  86.20867       40434.00       61614.34     1.08506     1.55926   179.92915     0.19173     0.00000   669.00275   669.00275
    10      282.61792      288.49564    -3     5    -5  -0.39938  -0.01087   0.01771  12.97790   0.07064  85.09809       10867.00       33411.34     1.70306     1.99888    19.23233     0.20002     0.00000   868.34229   868.34229
    19      258.62674      619.60236    -3     7    -5  -0.01398  -0.33876   0.00893  19.09388   0.05963  65.97752       11582.00       23683.35     1.17352     1.72357   177.53961     0.21360     0.00000   439.08386   439.08386
    17      858.91821      567.48828    -7     5    -3   0.15951  -0.27748   0.01094  18.24949   0.05968  69.39368        7839.00       16458.35     1.23861     1.59733   178.06953     0.20668     0.00000   722.16333   722.16333
    31      475.06534      454.83148    -6     8    -6  -0.00048   0.08983   0.00272  21.97054   0.04659  74.55443        2426.00        5270.35     1.07752     1.46767     0.88387     0.14862     0.00000   454.98953   454.98953
    20      463.67133      498.15753    -5     7    -5   0.38086  -0.09409   0.02012  19.31702   0.05461  71.98021        1030.00        3043.34     1.39344     1.66226   168.40918     0.10166     0.00000  1012.99304  1012.99304
    21      721.88965      228.63136    -8     6    -6   0.04128   0.01051   0.00187  18.98060   0.04655  89.11642       19415.00       27836.35     1.15471     1.24391   179.23572     0.17709     0.00000   753.90100   753.90100
    15      129.37469       39.63098    -3     5    -7  -0.18631   0.27677   0.01049  13.62123   0.05948  99.85371         797.00        2985.34     1.47815     1.83474     0.00000     0.10508     0.00000   475.04681   475.04681
    18      438.70068       20.96433    -6     6    -8   0.43311   0.31726   0.01995  17.14027   0.04649 102.15987       14751.00       28784.35     1.21638     1.69768     6.05777     0.21288     0.00000   129.74239   129.74239
    30     1012.73230      601.51892    -9     5    -3   0.04746  -0.15631   0.00455  21.60165   0.05069  68.96277         441.00        1985.34     1.39394     2.06838     8.86172     0.09153     0.00000   699.00507   699.00507
    16      753.60413      232.68642    -7     5    -5  -0.31051   0.17915   0.01478  16.22819   0.05456  88.87653        7029.00       17325.35     1.09313     1.94841   179.97768     0.29890     0.00000   463.99496   463.99496
    22      145.61903      355.23260    -3     7    -7  -0.00809  -0.00221   0.00034  18.14007   0.05245  81.32557        6389.00       16360.34     1.23918     1.88641   178.99693     0.17422     0.00000   145.93558   145.93558
    23      364.76489      259.68420    -5     7    -7  -0.03242  -0.04607   0.00210  18.42552   0.04893  86.88640        8443.00       14205.34     1.19362     1.33102     0.86090     0.17332     0.00000   365.10065   365.10065
    29      784.17188       52.49388   -10     6    -8  -0.05277  -0.09253   0.00356  21.07599   0.03835 100.15457        4664.00        8244.34     1.12258     1.34497   176.20625     0.14667     0.00000   262.02936   262.02936
    32      300.68149       93.02780    -6     8   -10  -0.05551   0.01678   0.00230  21.53488   0.03834  97.33958         607.00        2359.34     1.32388     1.84437     9.88741     0.10610     0.00000   971.98145   971.98145
    25      919.97711      273.20416    -9     5    -5   0.10623  -0.04461   0.00447  19.04863   0.04744  86.63502         730.00        2376.34     1.13856     1.85757   176.86131     0.09781     0.00000   301.00357   301.00357
    26       27.57699      162.48315    -3     7    -9   0.36193   0.06197   0.01227  18.66538   0.04597  92.52448        2824.00       10097.34     1.81771     1.81836    51.57545     0.17287     0.00000   920.13605   920.13605
    24      822.89825       31.34144    -9     5    -7   0.18322  -0.16158   0.00819  18.39825   0.04356 101.33353         754.00        3452.34     1.66174     1.87748    84.67944     0.12800     0.00000   784.08032   784.08032
    27      261.68146       78.66797    -5     7    -9  -0.05917  -0.01440   0.00233  18.85053   0.04354  98.10449        3613.00        8730.34     1.38744     1.63180   167.11971     0.16631     0.00000    27.93125    27.93125
    35      698.78595      226.33524    -9     7    -7   0.03077  -0.11218   0.00385  21.74991   0.04057  89.25153           0.00           0.00     0.00000     0.00000     0.00000     0.00000     0.00000     0.00000     0.00000
    28      454.66687       47.75267    -7     7    -9   0.00906   0.04086   0.00133  19.89027   0.04053 100.53987        3301.00       10237.34     1.53372     1.90479    84.18072     0.20151     0.00000   823.13745   823.13745
    33      971.58472       85.54413   -11     5    -7  -0.32383  -0.36030   0.01571  21.19060   0.03885  97.71246         592.00        2366.93     1.37676     1.83240    12.42509     0.10842     0.00000   971.97925   971.97925
latticeparameters=   0.54328   0.54479   0.54095  89.94877  90.19087  90.25849
dpsx, dpsy: 179.00000 168.38699
dd, xcent, ycent:      150.57201      540.60303      212.87601
pitch,yaw,roll:  -0.22645   0.61642   0.00000
dev1, dev2, pixdev:   0.01225   0.01209   0.24755
deviatoric strain in crystal reference u1 u2 u3 (*10^3)
   0.51459  -2.26313  -1.65933
  -2.26313   3.28045   0.43788
  -1.65933   0.43788  -3.78237
deviatoric strain in sample reference X Y Z (*10^3)
  -0.24589  -0.91928   0.50505
  -0.91928   4.55254   0.14443
   0.50505   0.14443  -4.29397
deviatoric principal strains (*10^3):   4.72290  -0.34671  -4.36352
deviatoric strain principal axes in sample reference:
  -0.18137   0.98340   0.00559
   0.97503   0.17908   0.13131
  -0.12813  -0.02927   0.99133
deviatoric stress in crystal reference u1 u2 u3 (MPa)
       53.14432     -359.88333     -263.86594
     -359.88333      334.43253       69.63228
     -263.86594       69.63228     -383.85718
deviatoric stress in sample reference X Y Z (MPa)
      -37.71356     -204.97847      -25.58882
     -204.97847      560.04004       17.79776
      -25.58882       17.79776     -518.60675
deviatoric principal stresses (MPa):      624.10547     -100.37309     -520.01270
deviatoric stress principal axes in sample reference:
       -0.29654        0.95478        0.02151
       -0.95371       -0.29724        0.04570
        0.05003       -0.00696        0.99872
total strain in sample reference X Y Z (*10^3)
   1.52096  -0.91928   0.50505
  -0.91928   6.31939   0.14443
   0.50505   0.14443  -2.52712
total principal strains (*10^3):   6.48976   1.42014  -2.59666
total strain principal axes in sample reference:
  -0.18137   0.98340   0.00559
   0.97503   0.17908   0.13131
  -0.12813  -0.02927   0.99133
total stress in crystal reference u1 u2 u3 (MPa)
      571.75110     -359.88333     -263.86594
     -359.88333      853.03931       69.63228
     -263.86594       69.63228      134.74960
total stress in sample reference X Y Z (MPa)
      480.89322     -204.97847      -25.58882
     -204.97847     1078.64685       17.79776
      -25.58882       17.79776        0.00000
total principal stresses (MPa):     1142.71228      418.23370       -1.40590
total stress principal axes in sample reference:
       -0.29655        0.95478        0.02151
       -0.95371       -0.29724        0.04570
        0.05003       -0.00696        0.99872
dilatational strain (*10^-3):        1.76685
hydrostatic stress (MPa):      519.84668
Von Mises stress (MPa):     1002.49011
equivalent strain (*10^-3):        5.25777
equivalent stress (MPa):     1002.49011
maximum resolved shear stress:       21.38318
coordinates of a, b, c in X, Y, Z
   0.44449  -0.20239   0.23859
   0.19245   0.50581   0.06494
  -0.24577   0.03226   0.48113
coordinates of a*, b*, c* in X, Y, Z
   1.50615  -0.67767   0.81482
   0.65594   1.70111   0.22103
  -0.83544   0.10643   1.64669
