\\vmware-host\Shared Folders\Desktop\SiHyperlaueFinal_shielded_results\results_00129.STR
Number of grains:       1
Grain no:       1   Grainlist file index:       1    Number of peaks:      32
no   x(exp)  y(exp)  h  k  l xdev  ydev  angdev  energy  dspace  twotheta  intens   integr  xwidth   ywidth  tilt  rfactor   pearson  xcentroid  ycentroid
     4      392.64200      872.04022    -2     4    -2  -0.29298  -0.12699   0.01711  12.44986   0.11103  53.28988       36231.00      132966.16     1.83226     1.88288     9.04129     0.22409     0.00000   546.38568   546.38568
     6      746.39453      951.32617    -3     3    -1  -0.39145   0.47929   0.02406  11.59460   0.12489  50.69686       31859.00       84821.16     1.68021     1.88175    19.98564     0.24354     0.00000   925.35065   925.35065
    13      991.68817      299.61310    -4     2    -2   0.13772  -0.10242   0.00606   8.25864   0.11083  85.26151       12009.00       20672.16     1.19250     1.43502     3.23266     0.17617     0.00000   258.93439   258.93439
     3      546.08136      225.18246    -3     3    -3   0.08172   0.16478   0.00661   8.45344   0.10445  89.18942       23212.00       36766.16     1.25175     1.25546    31.60559     0.18534     0.00000   992.03967   992.03967
     7     1026.45630      909.50031    -5     3    -1  -0.25658   0.24389   0.01288  14.49357   0.09196  55.43520       28543.00      139726.16     1.91116     2.95471   175.67178     0.31101     0.00000   426.89850   426.89850
     5      925.01715      683.00470    -6     4    -2   0.09666   0.02748   0.00450  16.08333   0.07267  64.06303       29342.00       73898.16     1.59450     1.88843   100.26116     0.18335     0.00000  1026.77808  1026.77808
     2      426.65851      666.13531    -3     5    -3   0.45649  -0.10360   0.02514  14.36184   0.08291  62.74898       24842.00       76129.16     1.67555     2.03135   178.48122     0.20830     0.00000   746.69427   746.69427
    12      648.66736      500.21912    -6     6    -4   0.17958   0.03957   0.00941  18.19289   0.05794  72.04364       29980.00       49656.16     1.20837     1.49331   178.96429     0.21090     0.00000   282.89044   282.89044
     8      668.66687      570.49988    -5     5    -3   0.12389  -0.01929   0.00660  15.64310   0.07079  68.09128       18913.00       39972.16     1.08977     1.87119     0.02593     0.19107     0.00000   649.00781   649.00781
    14      868.13391      257.28033    -5     3    -3   0.06748   0.18936   0.00642  10.82883   0.08280  87.48874       11420.00       26803.16     1.51143     1.67644    35.39542     0.21814     0.00000   859.19110   859.19110
     9      331.59811      270.38568    -4     6    -6  -0.48064  -0.02036   0.02172  15.68424   0.05784  86.20879       43491.00       64878.16     1.08405     1.52670     0.05548     0.19274     0.00000   669.00525   669.00525
    10      282.61758      288.50266    -3     5    -5  -0.39861  -0.02195   0.01769  12.97816   0.07064  85.09834       12087.00       35824.16     1.79317     1.88296   155.68881     0.19941     0.00000   868.34326   868.34326
    19      258.62491      619.59869    -3     7    -5  -0.01046  -0.34063   0.00895  19.09413   0.05963  65.97779       11810.00       24436.16     1.18038     1.73577   177.64265     0.21482     0.00000   439.07397   439.07397
    17      858.89954      567.49445    -7     5    -3   0.16339  -0.26788   0.01090  18.24999   0.05968  69.39272        8188.00       16672.16     1.23849     1.55219   177.48473     0.20727     0.00000   722.16504   722.16504
    31      475.08292      454.81171    -6     8    -6  -0.02118   0.11414   0.00361  21.97104   0.04659  74.55415        2508.00        5533.16     1.08896     1.50844     2.94162     0.15195     0.00000   454.99213   454.99213
    20      463.67126      498.15942    -5     7    -5   0.37828  -0.09141   0.01998  19.31745   0.05461  71.97994        1112.00        3216.16     1.34454     1.59822   170.42677     0.10778     0.00000  1013.01044  1013.01044
    21      721.86487      228.63432    -8     6    -6   0.05331   0.01656   0.00244  18.98110   0.04655  89.11583       19500.00       28534.16     1.15652     1.26026   178.05518     0.18582     0.00000   753.89417   753.89417
    15      129.38673       39.63189    -3     5    -7  -0.19522   0.26792   0.01050  13.62156   0.05947  99.85418         780.00        2971.16     1.45693     1.83230   176.81778     0.10816     0.00000   475.07828   475.07828
    18      438.70407       20.97181    -6     6    -8   0.42469   0.31293   0.01959  17.14076   0.04649 102.15967       15366.00       29732.16     1.21453     1.68124     5.74175     0.21364     0.00000   129.73824   129.73824
    30     1012.71814      601.52856    -9     5    -3   0.04007  -0.14993   0.00425  21.60223   0.05069  68.96175         444.00        1894.16     1.26372     1.90272     7.89928     0.09180     0.00000   699.00232   699.00232
    16      753.59723      232.68774    -7     5    -5  -0.31758   0.18729   0.01517  16.22862   0.05456  88.87592        7170.00       17683.16     1.09337     1.95027     0.13811     0.29741     0.00000   464.00974   464.00974
    22      145.61687      355.22360    -3     7    -7  -0.00285  -0.00420   0.00017  18.14035   0.05245  81.32620        6407.00       16281.16     1.23728     1.89598   179.23470     0.16771     0.00000   145.92513   145.92513
    23      364.76456      259.68762    -5     7    -7  -0.03359  -0.05006   0.00223  18.42594   0.04893  86.88644        8643.00       14678.16     1.20036     1.33102     1.06090     0.17773     0.00000   365.10379   365.10379
    29      784.15717       52.51868   -10     6    -8  -0.05588  -0.10755   0.00401  21.07656   0.03835 100.15401        4901.00        8379.16     1.11851     1.33815   176.61369     0.14107     0.00000   262.00275   262.00275
    32      300.68155       93.00725    -6     8   -10  -0.05631   0.03534   0.00253  21.53543   0.03834  97.33971         603.00        2361.16     1.42231     1.55286     0.00000     0.10949     0.00000   971.99109   971.99109
    24      919.94507      273.23029    -9     5    -5   0.11724  -0.05995   0.00504  19.04910   0.04744  86.63433         750.00        3538.16     1.72032     1.87306    81.94786     0.12857     0.00000   784.08502   784.08502
    26       27.57544      162.46246    -3     7    -9   0.36859   0.06838   0.01251  18.66574   0.04597  92.52529        2984.00       10290.16     1.67823     1.89474    15.59565     0.17619     0.00000   920.13586   920.13586
    25      822.88245       31.35579    -9     5    -7   0.17900  -0.16564   0.00813  18.39875   0.04356 101.33297         738.00        2473.16     1.13619     1.84709   176.53033     0.10437     0.00000   301.02380   301.02380
    27      261.67966       78.66883    -5     7    -9  -0.05721  -0.01853   0.00228  18.85101   0.04354  98.10469        3597.00        8790.16     1.39995     1.68308   166.32330     0.16102     0.00000    27.91187    27.91187
    35      698.72986      226.33388    -9     7    -7   0.07498  -0.10218   0.00469  21.75049   0.04057  89.25097           0.00           0.00     0.00000     0.00000     0.00000     0.00000     0.00000     0.00000     0.00000
    28      454.66473       47.76641    -7     7    -9   0.00590   0.03049   0.00098  19.89083   0.04053 100.53965        3386.00        9952.16     1.47944     1.89672    86.08010     0.19954     0.00000   823.11365   823.11365
    33      971.55182       85.52224   -11     5    -7  -0.31786  -0.32773   0.01491  21.19112   0.03885  97.71192         615.00        2440.83     1.37278     1.71477    15.85652     0.11131     0.00000   971.99982   971.99982
latticeparameters=   0.54329   0.54479   0.54093  89.94937  90.19167  90.25725
dpsx, dpsy: 179.00000 168.38699
dd, xcent, ycent:      150.57201      540.60303      212.87601
pitch,yaw,roll:  -0.22645   0.61642   0.00000
dev1, dev2, pixdev:   0.01222   0.01201   0.24636
deviatoric strain in crystal reference u1 u2 u3 (*10^3)
   0.52883  -2.25234  -1.66626
  -2.25234   3.29351   0.43269
  -1.66626   0.43269  -3.80951
deviatoric strain in sample reference X Y Z (*10^3)
  -0.22714  -0.91129   0.51929
  -0.91129   4.55792   0.14400
   0.51929   0.14400  -4.31795
deviatoric principal strains (*10^3):   4.72585  -0.32270  -4.39032
deviatoric strain principal axes in sample reference:
  -0.18041   0.98358   0.00530
   0.97496   0.17811   0.13314
  -0.13001  -0.02919   0.99108
deviatoric stress in crystal reference u1 u2 u3 (MPa)
       54.60216     -358.16782     -264.96817
     -358.16782      335.77002       68.80704
     -264.96817       68.80704     -386.60742
deviatoric stress in sample reference X Y Z (MPa)
      -35.04849     -203.74658      -24.27341
     -203.74658      560.15552       17.85491
      -24.27341       17.85491     -521.34222
deviatoric principal stresses (MPa):      623.73212      -97.35701     -522.61029
deviatoric stress principal axes in sample reference:
       -0.29612        0.95492        0.02117
       -0.95402       -0.29677        0.04212
        0.04650       -0.00772        0.99889
total strain in sample reference X Y Z (*10^3)
   1.54903  -0.91129   0.51929
  -0.91129   6.33409   0.14400
   0.51929   0.14400  -2.54178
total principal strains (*10^3):   6.50202   1.45347  -2.61414
total strain principal axes in sample reference:
  -0.18041   0.98358   0.00530
   0.97496   0.17811   0.13314
  -0.13001  -0.02919   0.99108
total stress in crystal reference u1 u2 u3 (MPa)
      575.94440     -358.16782     -264.96817
     -358.16782      857.11224       68.80704
     -264.96817       68.80704      134.73483
total stress in sample reference X Y Z (MPa)
      486.29376     -203.74658      -24.27341
     -203.74658     1081.49780       17.85491
      -24.27341       17.85491        0.00000
total principal stresses (MPa):     1145.07434      423.98523       -1.26806
total stress principal axes in sample reference:
       -0.29612        0.95492        0.02117
       -0.95402       -0.29677        0.04212
        0.04650       -0.00772        0.99889
dilatational strain (*10^-3):        1.77617
hydrostatic stress (MPa):      522.59717
Von Mises stress (MPa):     1003.72076
equivalent strain (*10^-3):        5.27337
equivalent stress (MPa):     1003.72076
maximum resolved shear stress:       21.55591
coordinates of a, b, c in X, Y, Z
   0.44450  -0.20240   0.23859
   0.19246   0.50582   0.06495
  -0.24577   0.03225   0.48112
coordinates of a*, b*, c* in X, Y, Z
   1.50614  -0.67772   0.81481
   0.65594   1.70111   0.22105
  -0.83545   0.10642   1.64677
