\\vmware-host\Shared Folders\Desktop\SiHyperlaueFinal_shielded_results\results_00034.STR
Number of grains:       1
Grain no:       1   Grainlist file index:       1    Number of peaks:      33
no   x(exp)  y(exp)  h  k  l xdev  ydev  angdev  energy  dspace  twotheta  intens   integr  xwidth   ywidth  tilt  rfactor   pearson  xcentroid  ycentroid
     2      392.62311      871.98486    -2     4    -2  -0.32627  -0.10510   0.01890  12.44740   0.11105  53.29151       57986.00      199840.52     1.80327     2.05908   178.06764     0.21339     0.00000   746.61487   746.61487
     5      746.29553      951.29840    -3     3    -1  -0.32310   0.53265   0.02107  11.59354   0.12490  50.69564       48739.00      126232.52     1.66520     1.86808   100.85915     0.19727     0.00000  1026.74438  1026.74438
    13      991.66681      299.62433    -4     2    -2   0.10522  -0.03429   0.00414   8.25872   0.11084  85.25678       48564.00       84020.52     1.23567     1.55578   179.34840     0.22728     0.00000   282.87097   282.87097
     3      546.02576      225.15404    -3     3    -3   0.12601   0.19138   0.00860   8.45268   0.10446  89.18953       38713.00       57926.52     1.22337     1.23369   172.40033     0.18043     0.00000   992.00317   992.00317
     6     1026.42603      909.54016    -5     3    -1  -0.28455   0.26433   0.01423  14.49348   0.09197  55.43208       44952.00      120508.52     1.59553     1.96690   112.52246     0.24467     0.00000   925.34033   925.34033
     7      924.97833      683.06134    -6     4    -2   0.09328   0.01960   0.00433  16.08292   0.07268  64.06024        1046.00        2269.52     1.14994     1.43750   179.18256     0.07674     0.00000    62.01536    62.01536
    35       61.80263      407.68765    -1     3    -3   0.23844   0.28730   0.01268   7.85950   0.12447  78.64987           0.00           0.00     0.00000     0.00000     0.00000     0.00000     0.00000     0.00000     0.00000
     4      426.61194      666.13135    -3     5    -3   0.46247  -0.13401   0.02552  14.35930   0.08292  62.75086       78850.00      259635.52     1.78799     1.87403     1.66460     0.23116     0.00000   546.36908   546.36908
    14      648.66718      500.25027    -6     6    -4   0.15816   0.01277   0.00824  18.19113   0.05795  72.04332       14252.00       25389.52     1.23068     1.46220     5.24339     0.19142     0.00000   258.90875   258.90875
     8      668.66663      570.51996    -5     5    -3   0.10063  -0.03288   0.00543  15.64158   0.07079  68.09083       47922.00      216626.52     1.89942     2.73672   175.36913     0.30517     0.00000   426.82043   426.82043
     9      868.08069      257.33331    -5     3    -3   0.08922   0.19686   0.00705  10.82868   0.08280  87.48500       24798.00       50341.52     1.08956     1.85395   179.95021     0.19698     0.00000   649.00720   649.00720
    11      331.58728      270.36133    -4     6    -6  -0.49823  -0.03796   0.02254  15.68201   0.05785  86.21145       32306.00       86559.52     1.65021     1.93989   127.15050     0.22009     0.00000   868.37964   868.37964
    10      282.60724      288.47144    -3     5    -5  -0.42397  -0.04036   0.01886  12.97618   0.07065  85.10147       62710.00       91730.52     1.08409     1.50098     0.00092     0.19074     0.00000   668.99835   668.99835
    19      258.60995      619.59192    -3     7    -5  -0.05818  -0.38702   0.01074  19.09026   0.05964  65.98097       23679.00       46712.52     1.24105     1.69542     7.00451     0.24000     0.00000   129.69426   129.69426
    17      858.85913      567.53790    -7     5    -3   0.17027  -0.27055   0.01119  18.24930   0.05968  69.39027        8708.00       21642.52     1.08633     1.94655     0.01715     0.30267     0.00000   464.01321   464.01321
    31      475.00552      454.86002    -6     8    -6   0.02945   0.04048   0.00198  21.96796   0.04659  74.55571         511.00        2261.52     1.28083     1.93482   178.95282     0.10416     0.00000   699.01825   699.01825
    20      463.66928      498.16443    -5     7    -5   0.35055  -0.12450   0.01868  19.31458   0.05462  71.98163       14772.00       30379.52     1.17714     1.74409   177.59438     0.22151     0.00000   439.07666   439.07666
    22      721.84308      228.64622    -8     6    -6   0.05960   0.03815   0.00293  18.98022   0.04655  89.11368       25451.00       38064.52     1.17074     1.29196   178.84171     0.20193     0.00000   753.88446   753.88446
    15      129.37512       39.61802    -3     5    -7  -0.21242   0.21910   0.00992  13.61979   0.05948  99.85763       15952.00       34074.52     1.44730     1.58873    68.42395     0.22556     0.00000   859.19598   859.19598
    18      438.70203       20.97918    -6     6    -8   0.42722   0.29996   0.01949  17.13933   0.04649 102.16001       10014.00       19596.52     1.22072     1.51240   177.85670     0.21374     0.00000   722.17267   722.17267
    30     1012.68909      601.59723    -9     5    -3   0.01229  -0.15626   0.00399  21.60224   0.05069  68.95808        5726.00        9976.52     1.12021     1.34596   177.31525     0.15783     0.00000   262.02365   262.02365
    16      753.58478      232.69727    -7     5    -5  -0.32309   0.21733   0.01578  16.22799   0.05456  88.87339         968.00        3402.52     1.56329     1.78327   171.72520     0.11495     0.00000   475.06042   475.06042
    21      145.60796      355.19534    -3     7    -7  -0.05669  -0.04235   0.00270  18.13710   0.05245  81.33027        1348.00        3533.52     1.32871     1.50563   170.95343     0.10939     0.00000  1013.00531  1013.00531
    23      364.74960      259.68619    -5     7    -7  -0.04276  -0.08490   0.00336  18.42347   0.04893  86.88876        7866.00       20584.52     1.25436     1.89679   179.24390     0.18206     0.00000   145.91208   145.91208
    29      784.11407       52.57873   -10     6    -8  -0.02890  -0.10134   0.00333  21.07622   0.03835 100.15001        4342.00       12425.52     1.45532     1.67392    35.44897     0.24861     0.00000   823.12793   823.12793
    32      300.67484       92.94267    -6     8   -10  -0.06475   0.06211   0.00326  21.53290   0.03834  97.34200        2923.00        6179.52     1.07694     1.49977   179.38971     0.15823     0.00000   455.00101   455.00101
    25      919.90479      273.33759    -9     5    -5   0.11764  -0.09830   0.00557  19.04905   0.04744  86.63013         940.00        4122.52     1.47481     1.82464   168.16168     0.15386     0.00000   784.07166   784.07166
    26       27.57087      162.41753    -3     7    -9   0.31125   0.03398   0.01050  18.66282   0.04597  92.52964         891.00        2668.52     1.11257     1.72629   175.58852     0.11211     0.00000   301.02100   301.02100
    24      822.82965       31.44334    -9     5    -7   0.21077  -0.17505   0.00925  18.39863   0.04356 101.32836       10751.00       17661.52     1.19602     1.29457     3.55845     0.18376     0.00000   365.11420   365.11420
    27      261.68018       78.66144    -5     7    -9  -0.07520  -0.05467   0.00332  18.84874   0.04354  98.10728        4102.00       12120.52     1.61406     1.79636    15.33321     0.19537     0.00000   920.15820   920.15820
    36      698.74719      226.38971    -9     7    -7   0.04364  -0.12908   0.00458  21.74936   0.04058  89.24910           0.00           0.00     0.00000     0.00000     0.00000     0.00000     0.00000     0.00000     0.00000
    28      454.66428       47.77209    -7     7    -9   0.00505   0.01971   0.00065  19.88916   0.04053 100.53997        4253.00       10568.52     1.39299     1.73531   169.65875     0.17502     0.00000    27.91944    27.91944
    33      971.51233       85.59772   -11     5    -7  -0.32835  -0.30063   0.01468  21.19147   0.03885  97.70615         693.00        2585.52     1.46289     1.52589    14.13397     0.11411     0.00000   971.97455   971.97455
latticeparameters=   0.54323   0.54487   0.54092  89.94983  90.19515  90.25737
dpsx, dpsy: 179.00000 168.38699
dd, xcent, ycent:      150.57201      540.60303      212.87601
pitch,yaw,roll:  -0.22645   0.61642   0.00000
dev1, dev2, pixdev:   0.01228   0.01206   0.25526
deviatoric strain in crystal reference u1 u2 u3 (*10^3)
   0.42234  -2.25369  -1.69647
  -2.25369   3.43553   0.42854
  -1.69647   0.42854  -3.84448
deviatoric strain in sample reference X Y Z (*10^3)
  -0.26472  -0.83604   0.48355
  -0.83604   4.66688   0.18171
   0.48355   0.18171  -4.38877
deviatoric principal strains (*10^3):   4.80587  -0.33923  -4.45325
deviatoric strain principal axes in sample reference:
  -0.16165   0.98679   0.01100
   0.97944   0.15907   0.12409
  -0.12070  -0.03083   0.99221
deviatoric stress in crystal reference u1 u2 u3 (MPa)
       43.80801     -358.38177     -269.77301
     -358.38177      350.24908       68.14625
     -269.77301       68.14625     -390.12796
deviatoric stress in sample reference X Y Z (MPa)
      -37.56423     -196.39629      -28.92209
     -196.39629      571.40662       22.02927
      -28.92209       22.02927     -529.91327
deviatoric principal stresses (MPa):      629.99164      -94.34825     -531.71429
deviatoric stress principal axes in sample reference:
       -0.28316        0.95874        0.02527
       -0.95753       -0.28410        0.04921
        0.05436       -0.01026        0.99847
total strain in sample reference X Y Z (*10^3)
   1.54065  -0.83604   0.48355
  -0.83604   6.47226   0.18171
   0.48355   0.18171  -2.58340
total principal strains (*10^3):   6.61124   1.46614  -2.64787
total strain principal axes in sample reference:
  -0.16165   0.98679   0.01100
   0.97944   0.15907   0.12409
  -0.12070  -0.03083   0.99221
total stress in crystal reference u1 u2 u3 (MPa)
      573.72125     -358.38177     -269.77301
     -358.38177      880.16229       68.14625
     -269.77301       68.14625      139.78529
total stress in sample reference X Y Z (MPa)
      492.34903     -196.39629      -28.92209
     -196.39629     1101.31982       22.02927
      -28.92209       22.02927        0.00000
total principal stresses (MPa):     1159.90479      435.56503       -1.80104
total stress principal axes in sample reference:
       -0.28316        0.95874        0.02527
       -0.95753       -0.28410        0.04921
        0.05436       -0.01026        0.99847
dilatational strain (*10^-3):        1.80537
hydrostatic stress (MPa):      531.22296
Von Mises stress (MPa):     1016.24756
equivalent strain (*10^-3):        5.35679
equivalent stress (MPa):     1016.24756
maximum resolved shear stress:       12.96989
coordinates of a, b, c in X, Y, Z
   0.44439  -0.20244   0.23849
   0.19255   0.50580   0.06500
  -0.24574   0.03224   0.48105
coordinates of a*, b*, c* in X, Y, Z
   1.50603  -0.67800   0.81477
   0.65602   1.70058   0.22114
  -0.83529   0.10637   1.64671
