\\vmware-host\Shared Folders\Desktop\SiHyperlaueFinal_shielded_results\results_00102.STR
Number of grains:       1
Grain no:       1   Grainlist file index:       1    Number of peaks:      32
no   x(exp)  y(exp)  h  k  l xdev  ydev  angdev  energy  dspace  twotheta  intens   integr  xwidth   ywidth  tilt  rfactor   pearson  xcentroid  ycentroid
     2      392.63895      871.98169    -2     4    -2  -0.30024  -0.11352   0.01746  12.45017   0.11103  53.29181       30054.00       98171.99     1.70660     2.04675   178.57494     0.21001     0.00000   746.67334   746.67334
     5      746.37549      951.26514    -3     3    -1  -0.38306   0.51321   0.02390  11.59475   0.12488  50.69781       33537.00       84517.99     1.60932     1.87420   157.74957     0.23266     0.00000  1026.77747  1026.77747
    14      991.68683      299.61920    -4     2    -2   0.14138  -0.10953   0.00629   8.25875   0.11083  85.26157       11931.00       27531.99     1.50990     1.66306    23.35836     0.21622     0.00000   859.19775   859.19775
     4      546.06616      225.14754    -3     3    -3   0.08797   0.19266   0.00753   8.45374   0.10445  89.18987       40681.00      140931.98     1.82342     1.87654    16.39500     0.22461     0.00000   546.37665   546.37665
     7     1026.47156      909.49469    -5     3    -1  -0.27238   0.25217   0.01361  14.49378   0.09196  55.43509       30778.00      149828.98     1.90397     2.89563   175.82233     0.30749     0.00000   426.87717   426.87717
     6      925.01672      683.01044    -6     4    -2   0.09305   0.01618   0.00432  16.08357   0.07267  64.06326       34310.00       90766.99     1.67185     1.89591    81.85931     0.25953     0.00000   925.34796   925.34796
     3      426.64264      666.11505    -3     5    -3   0.46195  -0.11045   0.02545  14.36232   0.08290  62.75041       24612.00       38585.99     1.23956     1.24819   167.05946     0.18625     0.00000   992.03485   992.03485
    12      648.66736      500.21283    -6     6    -4   0.16938   0.03232   0.00886  18.19337   0.05794  72.04440       30649.00       52179.99     1.21804     1.54548   179.50984     0.21253     0.00000   282.89401   282.89401
     8      668.66724      570.49274    -5     5    -3   0.11317  -0.02755   0.00606  15.64348   0.07078  68.09210       19523.00       41312.99     1.08965     1.87330     0.06948     0.18907     0.00000   649.00415   649.00415
    13      868.11969      257.27521    -5     3    -3   0.07879   0.19010   0.00665  10.82902   0.08279  87.48901       12191.00       21299.99     1.19888     1.45461     3.67463     0.18001     0.00000   258.93744   258.93744
     9      331.59409      270.36810    -4     6    -6  -0.48351  -0.01164   0.02183  15.68500   0.05784  86.20935       45363.00       68137.99     1.08461     1.54688   179.99191     0.18937     0.00000   669.00317   669.00317
    10      282.61411      288.47650    -3     5    -5  -0.40088  -0.00562   0.01777  12.97882   0.07063  85.09896       13290.00       39043.99     1.82616     1.84711    97.38945     0.20606     0.00000   868.34521   868.34521
    19      258.62213      619.59082    -3     7    -5  -0.01394  -0.36112   0.00951  19.09496   0.05963  65.97931       12204.00       24594.99     1.16828     1.72145   177.89578     0.21239     0.00000   439.07373   439.07373
    17      858.89301      567.49707    -7     5    -3   0.16408  -0.27841   0.01112  18.25030   0.05967  69.39310        8298.00       16715.99     1.23876     1.54595   177.62234     0.20356     0.00000   722.14349   722.14349
    31      475.03683      454.82660    -6     8    -6   0.01479   0.08445   0.00269  21.97187   0.04658  74.55506        2477.00        5299.99     1.07773     1.51290   179.37479     0.14450     0.00000   454.97095   454.97095
    20      463.67047      498.14297    -5     7    -5   0.36884  -0.09183   0.01949  19.31817   0.05461  71.98095        1103.00        3158.99     1.34794     1.63935   172.68073     0.10248     0.00000  1013.00720  1013.00720
    22      721.86041      228.63556    -8     6    -6   0.05076   0.00906   0.00229  18.98157   0.04655  89.11623        6539.00       17001.99     1.24669     1.90131   179.26518     0.16815     0.00000   145.93620   145.93620
    15      129.38274       39.62544    -3     5    -7  -0.19048   0.27235   0.01049  13.62231   0.05947  99.85430         854.00        2947.99     1.52639     1.81204   174.81593     0.10105     0.00000   475.05304   475.05304
    18      438.69937       20.96316    -6     6    -8   0.42249   0.31889   0.01961  17.14146   0.04648 102.15982       15609.00       30542.99     1.22738     1.68723     6.25826     0.21729     0.00000   129.74318   129.74318
    30     1012.70013      601.53943    -9     5    -3   0.05874  -0.16013   0.00490  21.60253   0.05069  68.96173         436.00        2066.99     1.23889     2.03783     1.31119     0.09792     0.00000   699.01324   699.01324
    16      753.59583      232.69092    -7     5    -5  -0.32249   0.17811   0.01526  16.22899   0.05456  88.87630        7476.00       18097.99     1.09177     1.94287     0.13535     0.29875     0.00000   464.01630   464.01630
    21      145.61311      355.19803    -3     7    -7  -0.00028   0.00691   0.00020  18.14135   0.05244  81.32705       20063.00       29300.99     1.15923     1.26553   177.98891     0.18559     0.00000   753.88586   753.88586
    23      364.76062      259.68713    -5     7    -7  -0.03719  -0.05793   0.00253  18.42680   0.04893  86.88697        8625.00       14623.99     1.19713     1.32225     0.73525     0.17820     0.00000   365.09833   365.09833
    29      784.14905       52.51563   -10     6    -8  -0.05129  -0.10877   0.00395  21.07701   0.03835 100.15428        4840.00        8468.99     1.11835     1.35982   176.76517     0.14450     0.00000   262.02646   262.02646
    33      300.68335       93.04230    -6     8   -10  -0.06325  -0.00327   0.00254  21.53648   0.03833  97.33991         610.00        2434.22     1.36405     1.79847    16.01220     0.11308     0.00000   971.97046   971.97046
    25      919.95135      273.24643    -9     5    -5   0.11005  -0.07929   0.00502  19.04939   0.04744  86.63452         793.00        2387.99     1.12189     1.83917   177.22234     0.09439     0.00000   300.98825   300.98825
    26       27.57799      162.45576    -3     7    -9   0.37105   0.06791   0.01259  18.66684   0.04596  92.52570        3075.00       10449.99     1.68677     1.87411    19.91418     0.18075     0.00000   920.15820   920.15820
    24      822.86993       31.34577    -9     5    -7   0.18953  -0.15966   0.00835  18.39911   0.04356 101.33322         800.00        3682.99     1.60846     1.93988    81.41739     0.13956     0.00000   784.08691   784.08691
    27      261.67764       78.65707    -5     7    -9  -0.05922  -0.00990   0.00231  18.85197   0.04354  98.10486        3654.00        9023.99     1.38901     1.68225   167.88007     0.16904     0.00000    27.93666    27.93666
    35      698.72949      226.26260    -9     7    -7   0.06790  -0.03732   0.00328  21.75106   0.04057  89.25137           0.00           0.00     0.00000     0.00000     0.00000     0.00000     0.00000     0.00000     0.00000
    28      454.66501       47.77185    -7     7    -9  -0.00162   0.02180   0.00069  19.89163   0.04052 100.53984        3485.00       10529.99     1.60499     1.76482    86.88766     0.20580     0.00000   823.13135   823.13135
    32      971.55853       85.52058   -11     5    -7  -0.32074  -0.32844   0.01500  21.19140   0.03885  97.71205         625.00        2437.99     1.36988     1.68566     6.74510     0.10963     0.00000   971.96600   971.96600
latticeparameters=   0.54330   0.54478   0.54093  89.94589  90.19029  90.25790
dpsx, dpsy: 179.00000 168.38699
dd, xcent, ycent:      150.57201      540.60303      212.87601
pitch,yaw,roll:  -0.22645   0.61642   0.00000
dev1, dev2, pixdev:   0.01226   0.01206   0.24728
deviatoric strain in crystal reference u1 u2 u3 (*10^3)
   0.56020  -2.25797  -1.65424
  -2.25797   3.26500   0.46297
  -1.65424   0.46297  -3.81243
deviatoric strain in sample reference X Y Z (*10^3)
  -0.23226  -0.94326   0.54334
  -0.94326   4.54434   0.15504
   0.54334   0.15504  -4.29932
deviatoric principal strains (*10^3):   4.72415  -0.33197  -4.37942
deviatoric strain principal axes in sample reference:
  -0.18635   0.98247   0.00566
   0.97290   0.18373   0.14042
  -0.13692  -0.03167   0.99008
deviatoric stress in crystal reference u1 u2 u3 (MPa)
       57.78816     -359.06174     -263.05658
     -359.06174      332.86606       73.62145
     -263.05658       73.62145     -386.90854
deviatoric stress in sample reference X Y Z (MPa)
      -36.82626     -207.74300      -21.08981
     -207.74300      559.14374       20.09327
      -21.08981       20.09327     -518.57178
deviatoric principal stresses (MPa):      624.97937     -101.61789     -519.61572
deviatoric stress principal axes in sample reference:
       -0.30007        0.95366        0.02229
       -0.95313       -0.30069        0.03372
        0.03886       -0.01113        0.99918
total strain in sample reference X Y Z (*10^3)
   1.53448  -0.94326   0.54334
  -0.94326   6.31108   0.15504
   0.54334   0.15504  -2.53259
total principal strains (*10^3):   6.49089   1.43477  -2.61269
total strain principal axes in sample reference:
  -0.18635   0.98247   0.00566
   0.97290   0.18373   0.14042
  -0.13692  -0.03167   0.99008
total stress in crystal reference u1 u2 u3 (MPa)
      576.35992     -359.06174     -263.05658
     -359.06174      851.43787       73.62145
     -263.05658       73.62145      131.66325
total stress in sample reference X Y Z (MPa)
      481.74554     -207.74300      -21.08981
     -207.74300     1077.71545       20.09327
      -21.08981       20.09327        0.00000
total principal stresses (MPa):     1143.55115      416.95386       -1.04398
total stress principal axes in sample reference:
       -0.30007        0.95366        0.02229
       -0.95313       -0.30069        0.03372
        0.03886       -0.01113        0.99918
dilatational strain (*10^-3):        1.76673
hydrostatic stress (MPa):      519.82031
Von Mises stress (MPa):     1003.18585
equivalent strain (*10^-3):        5.26669
equivalent stress (MPa):     1003.18585
maximum resolved shear stress:       25.21769
coordinates of a, b, c in X, Y, Z
   0.44454  -0.20240   0.23860
   0.19245   0.50583   0.06495
  -0.24575   0.03227   0.48115
coordinates of a*, b*, c* in X, Y, Z
   1.50619  -0.67767   0.81476
   0.65599   1.70122   0.22097
  -0.83547   0.10640   1.64684
