\\vmware-host\Shared Folders\Desktop\SiHyperlaueFinal_shielded_results\results_00030.STR
Number of grains:       1
Grain no:       1   Grainlist file index:       1    Number of peaks:      33
no   x(exp)  y(exp)  h  k  l xdev  ydev  angdev  energy  dspace  twotheta  intens   integr  xwidth   ywidth  tilt  rfactor   pearson  xcentroid  ycentroid
     2      392.62122      871.98303    -2     4    -2  -0.32891  -0.11760   0.01910  12.44809   0.11104  53.29213       59335.00      204954.14     1.80445     2.05981   177.96906     0.21551     0.00000   746.61267   746.61267
     5      746.29407      951.30157    -3     3    -1  -0.33319   0.52380   0.02149  11.59401   0.12490  50.69577       49111.00      127875.15     1.67640     1.85156   105.96102     0.19853     0.00000  1026.74072  1026.74072
    13      991.66791      299.62570    -4     2    -2   0.11088  -0.03110   0.00433   8.25883   0.11084  85.25654       49233.00       85653.15     1.23666     1.56357   179.08543     0.22918     0.00000   282.86353   282.86353
     3      546.02460      225.15482    -3     3    -3   0.12263   0.19417   0.00856   8.45297   0.10446  89.18929       39092.00       58723.14     1.22296     1.23820   170.19505     0.18072     0.00000   992.00146   992.00146
     6     1026.41870      909.53851    -5     3    -1  -0.28141   0.27737   0.01422  14.49390   0.09197  55.43159       46560.00      123751.15     1.59868     1.94749   106.80203     0.24985     0.00000   925.32892   925.32892
     7      924.96875      683.05768    -6     4    -2   0.09781   0.02954   0.00455  16.08337   0.07268  64.05989        1026.00        2306.15     1.15657     1.46481   175.88309     0.08024     0.00000    62.00815    62.00815
    36       61.81599      407.68646    -1     3    -3   0.23448   0.28789   0.01257   7.85996   0.12446  78.64986           0.00           0.00     0.00000     0.00000     0.00000     0.00000     0.00000     0.00000     0.00000
     4      426.61130      666.13525    -3     5    -3   0.45780  -0.14080   0.02529  14.36011   0.08292  62.75102       80442.00      265216.16     1.78760     1.87451     3.00395     0.23128     0.00000   546.37103   546.37103
    14      648.66730      500.25632    -6     6    -4   0.15039   0.00947   0.00783  18.19186   0.05795  72.04313       14656.00       26142.15     1.22567     1.46791     4.97282     0.19284     0.00000   258.90918   258.90918
     8      668.66681      570.52155    -5     5    -3   0.09208  -0.03245   0.00498  15.64222   0.07079  68.09068       49771.00      222911.14     1.89704     2.72926   175.27107     0.30571     0.00000   426.81952   426.81952
     9      868.06860      257.33307    -5     3    -3   0.10261   0.19965   0.00742  10.82887   0.08280  87.48485       25795.00       51765.14     1.08909     1.84725     0.02550     0.19785     0.00000   648.99921   648.99921
    11      331.58673      270.36020    -4     6    -6  -0.49939  -0.03213   0.02258  15.68277   0.05785  86.21116       33190.00       88748.15     1.65048     1.93582   143.74535     0.22347     0.00000   868.38007   868.38007
    10      282.60681      288.46671    -3     5    -5  -0.42387  -0.03112   0.01883  12.97684   0.07064  85.10118       64536.00       94423.15     1.08432     1.49694     0.04209     0.19222     0.00000   669.00305   669.00305
    19      258.61212      619.58997    -3     7    -5  -0.05927  -0.38929   0.01082  19.09142   0.05964  65.98119       24269.00       47435.14     1.24191     1.68798     7.13423     0.23758     0.00000   129.69722   129.69722
    17      858.85803      567.53949    -7     5    -3   0.16598  -0.26751   0.01098  18.24982   0.05968  69.38998        8819.00       22222.15     1.08493     1.95212   179.96204     0.30009     0.00000   464.00989   464.00989
    31      474.97400      454.84018    -6     8    -6   0.05533   0.06332   0.00348  21.96904   0.04659  74.55553         554.00        2357.15     1.26032     1.90797   177.48058     0.10827     0.00000   699.01904   699.01904
    20      463.66818      498.17957    -5     7    -5   0.34601  -0.13741   0.01851  19.31557   0.05462  71.98150       15307.00       31217.15     1.17254     1.74463   177.64247     0.22048     0.00000   439.08453   439.08453
    21      721.82550      228.64546    -8     6    -6   0.07433   0.04119   0.00358  18.98068   0.04655  89.11353        1430.00        3691.15     1.32351     1.51647   170.12047     0.10997     0.00000  1013.00171  1013.00171
    15      129.38145       39.61919    -3     5    -7  -0.21580   0.22238   0.01008  13.62036   0.05948  99.85739       16435.00       34977.14     1.44537     1.58263    70.29659     0.22702     0.00000   859.18793   859.18793
    18      438.70044       20.97932    -6     6    -8   0.42640   0.30169   0.01949  17.13985   0.04649 102.15989       10791.00       20792.15     1.22095     1.47272   177.43127     0.21988     0.00000   722.17023   722.17023
    30     1012.68701      601.61011    -9     5    -3   0.01485  -0.15976   0.00410  21.60271   0.05069  68.95762        6057.00       10312.15     1.11808     1.31262   178.77682     0.15792     0.00000   262.02213   262.02213
    16      753.58392      232.69820    -7     5    -5  -0.32440   0.21858   0.01585  16.22836   0.05456  88.87325        1064.00        3444.15     1.54579     1.73933   172.03529     0.11219     0.00000   475.05075   475.05075
    22      145.60683      355.19302    -3     7    -7  -0.05052  -0.03770   0.00241  18.13813   0.05245  81.33011       26360.00       39382.14     1.17284     1.29351   178.88509     0.20233     0.00000   753.85870   753.85870
    23      364.75186      259.68701    -5     7    -7  -0.04754  -0.08102   0.00340  18.42432   0.04893  86.88845        7913.00       20775.15     1.25393     1.90139   178.92432     0.18181     0.00000   145.90990   145.90990
    29      784.09338       52.58861   -10     6    -8  -0.00519  -0.11306   0.00346  21.07650   0.03835 100.15011        4570.00       12535.15     1.44471     1.79533    86.74829     0.21944     0.00000   823.12567   823.12567
    32      300.67499       92.98754    -6     8   -10  -0.06591   0.02158   0.00274  21.53376   0.03834  97.34173        3134.00        6446.15     1.08452     1.49325   178.69875     0.15613     0.00000   455.01633   455.01633
    25      919.91144      273.33319    -9     5    -5   0.11437  -0.09075   0.00534  19.04933   0.04744  86.62995         990.00        3998.15     1.51111     1.81125   165.93524     0.14506     0.00000   784.05286   784.05286
    26       27.57335      162.41066    -3     7    -9   0.31682   0.04482   0.01071  18.66374   0.04597  92.52943         908.00        2735.15     1.12232     1.83542   177.23645     0.10522     0.00000   300.99139   300.99139
    24      822.85144       31.42409    -9     5    -7   0.19430  -0.15866   0.00848  18.39882   0.04356 101.32852       11018.00       18160.15     1.19747     1.29860     2.08958     0.18680     0.00000   365.10172   365.10172
    27      261.67963       78.66699    -5     7    -9  -0.07487  -0.05581   0.00332  18.84950   0.04354  98.10701        4116.00       12446.15     1.62899     1.80573    21.01143     0.20006     0.00000   920.13959   920.13959
    34      698.72296      226.39305    -9     7    -7   0.06459  -0.13004   0.00508  21.74992   0.04058  89.24894         522.00        2764.24     1.23885     2.33164     5.66252     0.52932     0.00000   615.84363   615.84363
    28      454.66568       47.76085    -7     7    -9   0.00101   0.03317   0.00104  19.88977   0.04053 100.53983        4264.00       10888.15     1.39240     1.76528   170.68253     0.17778     0.00000    27.93066    27.93066
    33      971.56482       85.63730   -11     5    -7  -0.36858  -0.34178   0.01656  21.19160   0.03885  97.70621         692.00        2678.15     1.38577     1.71147    16.05997     0.11883     0.00000   971.99817   971.99817
latticeparameters=   0.54325   0.54484   0.54093  89.94812  90.19306  90.25737
dpsx, dpsy: 179.00000 168.38699
dd, xcent, ycent:      150.57201      540.60303      212.87601
pitch,yaw,roll:  -0.22645   0.61642   0.00000
dev1, dev2, pixdev:   0.01235   0.01214   0.25834
deviatoric strain in crystal reference u1 u2 u3 (*10^3)
   0.45797  -2.25356  -1.67831
  -2.25356   3.38063   0.44345
  -1.67831   0.44345  -3.82546
deviatoric strain in sample reference X Y Z (*10^3)
  -0.26212  -0.86755   0.49990
  -0.86755   4.62549   0.17730
   0.49990   0.17730  -4.35023
deviatoric principal strains (*10^3):   4.77581  -0.34337  -4.41929
deviatoric strain principal axes in sample reference:
  -0.16874   0.98561   0.00991
   0.97760   0.16607   0.12932
  -0.12581  -0.03150   0.99155
deviatoric stress in crystal reference u1 u2 u3 (MPa)
       47.41617     -358.36115     -266.88440
     -358.36115      344.65076       70.51725
     -266.88440       70.51725     -388.20944
deviatoric stress in sample reference X Y Z (MPa)
      -38.35142     -199.71741      -26.47767
     -199.71741      567.21863       21.96836
      -26.47767       21.96836     -525.00970
deviatoric principal stresses (MPa):      627.86597      -97.44026     -526.56824
deviatoric stress principal axes in sample reference:
       -0.28797        0.95732        0.02486
       -0.95635       -0.28883        0.04438
        0.04967       -0.01099        0.99871
total strain in sample reference X Y Z (*10^3)
   1.52655  -0.86755   0.49990
  -0.86755   6.41416   0.17730
   0.49990   0.17730  -2.56156
total principal strains (*10^3):   6.56447   1.44530  -2.63063
total strain principal axes in sample reference:
  -0.16874   0.98561   0.00991
   0.97760   0.16607   0.12932
  -0.12581  -0.03150   0.99155
total stress in crystal reference u1 u2 u3 (MPa)
      572.42584     -358.36115     -266.88440
     -358.36115      869.66040       70.51725
     -266.88440       70.51725      136.80026
total stress in sample reference X Y Z (MPa)
      486.65826     -199.71741      -26.47767
     -199.71741     1092.22827       21.96836
      -26.47767       21.96836        0.00000
total principal stresses (MPa):     1152.87573      427.56940       -1.55852
total stress principal axes in sample reference:
       -0.28797        0.95732        0.02486
       -0.95635       -0.28883        0.04438
        0.04967       -0.01099        0.99871
dilatational strain (*10^-3):        1.78867
hydrostatic stress (MPa):      526.29553
Von Mises stress (MPa):     1010.67755
equivalent strain (*10^-3):        5.32017
equivalent stress (MPa):     1010.67755
maximum resolved shear stress:       16.50098
coordinates of a, b, c in X, Y, Z
   0.44443  -0.20244   0.23852
   0.19253   0.50580   0.06498
  -0.24573   0.03226   0.48109
coordinates of a*, b*, c* in X, Y, Z
   1.50608  -0.67795   0.81472
   0.65608   1.70075   0.22105
  -0.83530   0.10641   1.64674
