\\vmware-host\Shared Folders\Desktop\SiHyperlaueFinal_shielded_results\results_00053.STR
Number of grains:       1
Grain no:       1   Grainlist file index:       1    Number of peaks:      33
no   x(exp)  y(exp)  h  k  l xdev  ydev  angdev  energy  dspace  twotheta  intens   integr  xwidth   ywidth  tilt  rfactor   pearson  xcentroid  ycentroid
     2      392.62570      871.98254    -2     4    -2  -0.32697  -0.12151   0.01901  12.44772   0.11105  53.29229       59977.00      206982.44     1.78773     2.06796   178.28827     0.21237     0.00000   746.62323   746.62323
     5      746.31140      951.28107    -3     3    -1  -0.33840   0.52387   0.02174  11.59358   0.12490  50.69664       49142.00      128440.44     1.62050     1.94008   106.48074     0.18484     0.00000  1026.74951  1026.74951
    13      991.67010      299.61703    -4     2    -2   0.11710  -0.04067   0.00463   8.25871   0.11084  85.25761       49641.00       86219.44     1.22860     1.56954   179.20134     0.22773     0.00000   282.88107   282.88107
     3      546.03607      225.14668    -3     3    -3   0.11749   0.19321   0.00838   8.45282   0.10446  89.18989       38634.00       58985.44     1.24032     1.24227    70.17105     0.18633     0.00000   992.01111   992.01111
     6     1026.42517      909.51691    -5     3    -1  -0.27294   0.26948   0.01379  14.49340   0.09197  55.43293       46099.00      123156.44     1.60470     1.95970   145.41411     0.24560     0.00000   925.34247   925.34247
     7      924.98907      683.04486    -6     4    -2   0.08996   0.02005   0.00418  16.08291   0.07268  64.06109        1048.00        2446.44     1.15692     1.48812     0.45654     0.08482     0.00000    62.02844    62.02844
    34       61.82713      407.68842    -1     3    -3   0.22648   0.28839   0.01234   7.85981   0.12446  78.64971         522.00        2764.24     1.23885     2.33164     5.66252     0.52932     0.00000   615.84363   615.84363
     4      426.62015      666.12329    -3     5    -3   0.45560  -0.13644   0.02516  14.35969   0.08292  62.75140       79968.00      264348.44     1.79831     1.87272     4.63003     0.23076     0.00000   546.37506   546.37506
    14      648.66699      500.23737    -6     6    -4   0.15946   0.01490   0.00831  18.19139   0.05795  72.04395       14685.00       26231.44     1.22409     1.46990     4.60684     0.19275     0.00000   258.91678   258.91678
     8      668.66681      570.50806    -5     5    -3   0.10144  -0.03353   0.00547  15.64178   0.07079  68.09153       47982.00      222256.44     1.90196     2.77805   175.26642     0.30550     0.00000   426.82745   426.82745
     9      868.07617      257.32968    -5     3    -3   0.10295   0.18778   0.00714  10.82870   0.08280  87.48579       24768.00       50770.44     1.08880     1.86200     0.05196     0.19538     0.00000   649.00702   649.00702
    11      331.58871      270.35480    -4     6    -6  -0.49634  -0.03168   0.02244  15.68246   0.05785  86.21147       32210.00       88104.44     1.76416     1.82448   146.13634     0.22881     0.00000   868.38629   868.38629
    10      282.61023      288.46402    -3     5    -5  -0.42257  -0.03229   0.01877  12.97658   0.07064  85.10142       62944.00       93221.44     1.08450     1.52114     0.03198     0.19346     0.00000   669.00201   669.00201
    19      258.61261      619.58813    -3     7    -5  -0.05533  -0.38932   0.01075  19.09094   0.05964  65.98126       23934.00       46780.44     1.24011     1.68574     7.16266     0.23963     0.00000   129.69800   129.69800
    17      858.87207      567.52869    -7     5    -3   0.16299  -0.27574   0.01103  18.24935   0.05968  69.39109        8847.00       22092.44     1.08792     1.94767   179.95638     0.30290     0.00000   464.01675   464.01675
    31      475.00357      454.81009    -6     8    -6   0.03249   0.08434   0.00309  21.96849   0.04659  74.55607         543.00        2219.44     1.25947     1.98023     6.25274     0.09623     0.00000   699.00085   699.00085
    20      463.66962      498.16312    -5     7    -5   0.35130  -0.12985   0.01875  19.31506   0.05462  71.98202       15392.00       31261.44     1.17735     1.73015   177.67125     0.22403     0.00000   439.09354   439.09354
    22      721.83759      228.64085    -8     6    -6   0.06948   0.03351   0.00329  18.98038   0.04655  89.11432       26236.00       38921.44     1.16736     1.28095   178.87158     0.20050     0.00000   753.87122   753.87122
    15      129.38203       39.61855    -3     5    -7  -0.21162   0.22408   0.01000  13.62017   0.05948  99.85735       15961.00       34563.44     1.46318     1.60379    64.92956     0.22432     0.00000   859.19971   859.19971
    18      438.70239       20.96948    -6     6    -8   0.42934   0.30668   0.01967  17.13964   0.04649 102.16020       10408.00       20221.44     1.23145     1.49824   177.85545     0.21461     0.00000   722.15955   722.15955
    30     1012.69244      601.59167    -9     5    -3   0.02156  -0.16452   0.00430  21.60218   0.05069  68.95890        5689.00       10018.44     1.11768     1.37355   177.28873     0.15607     0.00000   262.01501   262.01501
    16      753.58948      232.69460    -7     5    -5  -0.32257   0.20930   0.01565  16.22810   0.05456  88.87408        1061.00        3332.44     1.47558     1.76617   174.73534     0.10772     0.00000   475.05374   475.05374
    21      145.61043      355.19083    -3     7    -7  -0.05035  -0.03577   0.00237  18.13776   0.05245  81.33012        1343.00        3580.44     1.32350     1.55106   171.43443     0.11100     0.00000  1013.00055  1013.00055
    23      364.75473      259.68674    -5     7    -7  -0.04516  -0.08641   0.00347  18.42396   0.04893  86.88882        7903.00       20747.44     1.24989     1.89707   179.49997     0.18177     0.00000   145.92641   145.92641
    29      784.13519       52.59489   -10     6    -8  -0.04166  -0.13031   0.00436  21.07630   0.03835 100.15077        4422.00       12479.44     1.59460     1.65440    45.46788     0.22624     0.00000   823.13977   823.13977
    32      300.68127       93.02282    -6     8   -10  -0.06743  -0.01678   0.00274  21.53343   0.03834  97.34193        2970.00        6373.44     1.07932     1.50710     0.88581     0.16013     0.00000   454.99646   454.99646
    25      919.91815      273.29010    -9     5    -5   0.11579  -0.06410   0.00503  19.04905   0.04744  86.63095         954.00        4129.44     1.48074     1.83481   169.43362     0.14924     0.00000   784.09674   784.09674
    26       27.57565      162.41856    -3     7    -9   0.31879   0.03958   0.01076  18.66344   0.04597  92.52929         845.00        2682.44     1.12320     1.85973   176.30257     0.10516     0.00000   301.01309   301.01309
    24      822.84393       31.40190    -9     5    -7   0.20677  -0.14773   0.00872  18.39866   0.04356 101.32918       10831.00       18047.44     1.20363     1.30823     1.31262     0.18601     0.00000   365.12491   365.12491
    27      261.67911       78.65865    -5     7    -9  -0.06966  -0.04961   0.00306  18.84922   0.04354  98.10716        3936.00       12342.44     1.63857     1.84122    17.30453     0.19601     0.00000   920.16833   920.16833
    36      698.72803      226.34119    -9     7    -7   0.06665  -0.09003   0.00415  21.74957   0.04058  89.24971           0.00           0.00     0.00000     0.00000     0.00000     0.00000     0.00000     0.00000     0.00000
    28      454.66644       47.75703    -7     7    -9   0.00528   0.03150   0.00101  19.88951   0.04053 100.54018        4330.00       10926.44     1.38050     1.73287   169.60802     0.18341     0.00000    27.92107    27.92107
    33      971.56659       85.61806   -11     5    -7  -0.36521  -0.33721   0.01638  21.19143   0.03885  97.70704         742.00        2652.44     1.34427     1.62751    17.69618     0.11834     0.00000   971.99298   971.99298
latticeparameters=   0.54324   0.54485   0.54092  89.94827  90.19438  90.25807
dpsx, dpsy: 179.00000 168.38699
dd, xcent, ycent:      150.57201      540.60303      212.87601
pitch,yaw,roll:  -0.22645   0.61642   0.00000
dev1, dev2, pixdev:   0.01233   0.01211   0.25711
deviatoric strain in crystal reference u1 u2 u3 (*10^3)
   0.44251  -2.25977  -1.68975
  -2.25977   3.40255   0.44212
  -1.68975   0.44212  -3.83183
deviatoric strain in sample reference X Y Z (*10^3)
  -0.26571  -0.86127   0.48986
  -0.86127   4.64675   0.18230
   0.48986   0.18230  -4.36781
deviatoric principal strains (*10^3):   4.79442  -0.34678  -4.43440
deviatoric strain principal axes in sample reference:
  -0.16678   0.98594   0.01070
   0.97828   0.16411   0.12662
  -0.12308  -0.03159   0.99189
deviatoric stress in crystal reference u1 u2 u3 (MPa)
       45.84964     -359.34839     -268.70465
     -359.34839      346.88535       70.30650
     -268.70465       70.30650     -388.85062
deviatoric stress in sample reference X Y Z (MPa)
      -38.40803     -199.40991      -27.95941
     -199.40991      569.65155       22.48921
      -27.95941       22.48921     -527.35919
deviatoric principal stresses (MPa):      629.96765      -97.00928     -529.07404
deviatoric stress principal axes in sample reference:
       -0.28678        0.95765        0.02554
       -0.95656       -0.28771        0.04711
        0.05246       -0.01092        0.99856
total strain in sample reference X Y Z (*10^3)
   1.53096  -0.86127   0.48986
  -0.86127   6.44342   0.18230
   0.48986   0.18230  -2.57114
total principal strains (*10^3):   6.59109   1.44989  -2.63773
total strain principal axes in sample reference:
  -0.16678   0.98594   0.01070
   0.97828   0.16411   0.12662
  -0.12308  -0.03159   0.99189
total stress in crystal reference u1 u2 u3 (MPa)
      573.20880     -359.34839     -268.70465
     -359.34839      874.24451       70.30650
     -268.70465       70.30650      138.50853
total stress in sample reference X Y Z (MPa)
      488.95114     -199.40991      -27.95941
     -199.40991     1097.01074       22.48921
      -27.95941       22.48921        0.00000
total principal stresses (MPa):     1157.32690      430.34985       -1.71484
total stress principal axes in sample reference:
       -0.28678        0.95765        0.02554
       -0.95656       -0.28771        0.04711
        0.05246       -0.01092        0.99856
dilatational strain (*10^-3):        1.79667
hydrostatic stress (MPa):      528.65393
Von Mises stress (MPa):     1014.53265
equivalent strain (*10^-3):        5.33982
equivalent stress (MPa):     1014.53265
maximum resolved shear stress:       15.60857
coordinates of a, b, c in X, Y, Z
   0.44441  -0.20244   0.23851
   0.19253   0.50580   0.06499
  -0.24573   0.03225   0.48107
coordinates of a*, b*, c* in X, Y, Z
   1.50607  -0.67794   0.81476
   0.65605   1.70068   0.22109
  -0.83530   0.10638   1.64672
