\\vmware-host\Shared Folders\Desktop\SiHyperlaueFinal_shielded_results\results_00009.STR
Number of grains:       1
Grain no:       1   Grainlist file index:       1    Number of peaks:      33
no   x(exp)  y(exp)  h  k  l xdev  ydev  angdev  energy  dspace  twotheta  intens   integr  xwidth   ywidth  tilt  rfactor   pearson  xcentroid  ycentroid
     2      392.61618      871.97900    -2     4    -2  -0.33210  -0.10719   0.01924  12.44809   0.11105  53.29190       74233.00      260059.86     1.82585     2.04970   168.70509     0.21689     0.00000   746.59869   746.59869
     4      746.26440      951.28149    -3     3    -1  -0.31346   0.55424   0.02082  11.59408   0.12490  50.69529      108916.00      354176.88     1.77719     1.87316     0.87013     0.23365     0.00000   546.37024   546.37024
    13      991.65826      299.62308    -4     2    -2   0.11336  -0.01773   0.00435   8.25887   0.11084  85.25590       60073.00      104326.86     1.23965     1.55698   179.19534     0.23368     0.00000   282.86725   282.86725
     3      546.01538      225.15559    -3     3    -3   0.12957   0.19739   0.00886   8.45297   0.10446  89.18903       51360.00       76349.86     1.22546     1.23699   172.11810     0.18200     0.00000   991.98401   991.98401
     6     1026.40991      909.56122    -5     3    -1  -0.28563   0.26518   0.01428  14.49402   0.09197  55.43100       49387.00      134288.86     1.64638     1.91369   101.75138     0.25044     0.00000   925.33093   925.33093
     7      924.96234      683.09033    -6     4    -2   0.09417   0.00641   0.00438  16.08347   0.07268  64.05933        2566.00        4447.86     1.13604     1.41880   179.73167     0.09688     0.00000    62.05195    62.05195
    29       61.79621      407.68433    -1     3    -3   0.24884   0.28676   0.01299   7.85990   0.12446  78.65007        4866.00       13198.86     1.43814     1.75003    88.12308     0.22476     0.00000   823.14148   823.14148
     5      426.60318      666.14056    -3     5    -3   0.45911  -0.14144   0.02536  14.36010   0.08292  62.75080       55269.00      144060.86     1.64283     1.87283   106.80098     0.19500     0.00000  1026.73242  1026.73242
    15      648.66699      500.26352    -6     6    -4   0.14469   0.00860   0.00754  18.19190   0.05795  72.04274       18036.00       37112.86     1.42573     1.54684    69.08522     0.22649     0.00000   859.18658   859.18658
     9      668.66681      570.53021    -5     5    -3   0.08530  -0.03423   0.00464  15.64227   0.07079  68.09027       27560.00       54768.86     1.08995     1.84195   179.97836     0.19847     0.00000   649.00885   649.00885
     8      868.05682      257.36169    -5     3    -3   0.10933   0.18017   0.00712  10.82891   0.08280  87.48428       57811.00      254058.86     1.89504     2.67383   175.38564     0.30451     0.00000   426.80231   426.80231
    12      331.58121      270.36102    -4     6    -6  -0.49647  -0.03253   0.02245  15.68271   0.05785  86.21113       37492.00       80564.86     1.30241     1.74298   178.01973     0.25101     0.00000   331.83823   331.83823
    10      282.60565      288.47000    -3     5    -5  -0.42562  -0.03475   0.01891  12.97678   0.07064  85.10121       72299.00      105019.86     1.08386     1.48155     0.02034     0.19354     0.00000   668.99860   668.99860
    19      258.60834      619.58899    -3     7    -5  -0.06213  -0.38644   0.01080  19.09135   0.05964  65.98113       28707.00       56329.86     1.24177     1.68883     7.34946     0.24764     0.00000   129.68896   129.68896
    17      858.84174      567.55200    -7     5    -3   0.17394  -0.27123   0.01134  18.24992   0.05968  69.38945        9063.00       23117.86     1.08623     1.94890   179.90125     0.30304     0.00000   464.00558   464.00558
    32      474.96970      454.85617    -6     8    -6   0.05472   0.05109   0.00326  21.96903   0.04659  74.55530        3264.00        6519.86     1.09032     1.50299     3.04980     0.15310     0.00000   455.00967   455.00967
    20      463.66824      498.18411    -5     7    -5   0.34061  -0.13808   0.01824  19.31555   0.05462  71.98128       16329.00       33495.86     1.17485     1.75903   177.82912     0.21883     0.00000   439.09116   439.09116
    22      721.82971      228.64754    -8     6    -6   0.06681   0.04602   0.00333  18.98072   0.04655  89.11308       28714.00       43600.86     1.18401     1.29883   178.83942     0.21083     0.00000   753.85406   753.85406
    14      129.38057       39.61890    -3     5    -7  -0.21442   0.21780   0.00995  13.62026   0.05948  99.85767       15380.00       27530.86     1.23352     1.46209     5.36600     0.19757     0.00000   258.91345   258.91345
    18      438.70087       20.99293    -6     6    -8   0.42722   0.28969   0.01935  17.13980   0.04649 102.15980       11169.00       21260.86     1.21660     1.48050   178.48405     0.21394     0.00000   722.15326   722.15326
    31     1012.68646      601.63141    -9     5    -3   0.00480  -0.17100   0.00430  21.60285   0.05069  68.95701         605.00        2237.86     1.20893     1.94603     0.74872     0.09445     0.00000   699.03046   699.03046
    16      753.58234      232.70341    -7     5    -5  -0.32644   0.22079   0.01596  16.22840   0.05456  88.87278        1141.00        3612.86     1.54693     1.74407   172.30618     0.11404     0.00000   475.04968   475.04968
    21      145.60513      355.18732    -3     7    -7  -0.05307  -0.03428   0.00245  18.13801   0.05245  81.33026        1447.00        3632.86     1.32933     1.47476   168.86571     0.10626     0.00000  1013.00934  1013.00934
    23      364.74841      259.68903    -5     7    -7  -0.04652  -0.08208   0.00340  18.42426   0.04893  86.88839        8441.00       22296.86     1.25592     1.90053   179.21146     0.18706     0.00000   145.90877   145.90877
    30      784.12952       52.58160   -10     6    -8  -0.04254  -0.09762   0.00347  21.07655   0.03835 100.14960        6220.00       10761.86     1.11855     1.36292   176.71185     0.15741     0.00000   262.00708   262.00708
    33      300.68289       92.96940    -6     8   -10  -0.07373   0.03871   0.00321  21.53365   0.03834  97.34179         746.00        2782.86     1.46075     1.59041    24.07168     0.11986     0.00000   971.96259   971.96259
    25      919.91150      273.34390    -9     5    -5   0.10844  -0.09161   0.00515  19.04942   0.04744  86.62935         972.00        4156.86     1.49257     1.82481   167.13869     0.14944     0.00000   784.08746   784.08746
    26       27.57815      162.41745    -3     7    -9   0.30983   0.03194   0.01045  18.66358   0.04597  92.52977         978.00        2891.86     1.13059     1.76826   176.90614     0.11055     0.00000   300.99521   300.99521
    24      822.84863       31.44594    -9     5    -7   0.19586  -0.17123   0.00873  18.39887   0.04356 101.32797       11734.00       19132.86     1.20789     1.29255     1.20275     0.18290     0.00000   365.11618   365.11618
    27      261.67688       78.66239    -5     7    -9  -0.07185  -0.05308   0.00318  18.84940   0.04354  98.10713        4474.00       13161.86     1.63053     1.78924    21.32904     0.19803     0.00000   920.15485   920.15485
    36      698.71851      226.38005    -9     7    -7   0.06593  -0.11050   0.00461  21.74996   0.04058  89.24852           0.00           0.00     0.00000     0.00000     0.00000     0.00000     0.00000     0.00000     0.00000
    28      454.66589       47.77473    -7     7    -9   0.00156   0.02125   0.00067  19.88972   0.04053 100.53970        4746.00       11736.86     1.39167     1.73709   169.78516     0.17955     0.00000    27.90684    27.90684
    34      971.51770       85.62374   -11     5    -7  -0.32540  -0.31649   0.01490  21.19170   0.03885  97.70555         522.00        2764.24     1.23885     2.33164     5.66252     0.52932     0.00000   615.84363   615.84363
latticeparameters=   0.54325   0.54484   0.54093  89.94842  90.19348  90.25753
dpsx, dpsy: 179.00000 168.38699
dd, xcent, ycent:      150.57201      540.60303      212.87601
pitch,yaw,roll:  -0.22645   0.61642   0.00000
dev1, dev2, pixdev:   0.01227   0.01203   0.25549
deviatoric strain in crystal reference u1 u2 u3 (*10^3)
   0.45528  -2.25499  -1.68203
  -2.25499   3.37995   0.44088
  -1.68203   0.44088  -3.82211
deviatoric strain in sample reference X Y Z (*10^3)
  -0.26060  -0.86762   0.49449
  -0.86762   4.62545   0.17635
   0.49449   0.17635  -4.35172
deviatoric principal strains (*10^3):   4.77583  -0.34337  -4.41934
deviatoric strain principal axes in sample reference:
  -0.16882   0.98560   0.00990
   0.97776   0.16619   0.12793
  -0.12445  -0.03127   0.99173
deviatoric stress in crystal reference u1 u2 u3 (MPa)
       47.14113     -358.58801     -267.47595
     -358.58801      344.58044       70.10828
     -267.47595       70.10828     -387.86890
deviatoric stress in sample reference X Y Z (MPa)
      -38.04652     -199.76056      -27.20195
     -199.76056      567.26672       21.78822
      -27.20195       21.78822     -525.36755
deviatoric principal stresses (MPa):      627.96075      -97.11467     -526.99341
deviatoric stress principal axes in sample reference:
       -0.28814        0.95727        0.02488
       -0.95622       -0.28902        0.04603
        0.05126       -0.01053        0.99863
total strain in sample reference X Y Z (*10^3)
   1.52929  -0.86762   0.49449
  -0.86762   6.41533   0.17635
   0.49449   0.17635  -2.56184
total principal strains (*10^3):   6.56571   1.44652  -2.62945
total strain principal axes in sample reference:
  -0.16882   0.98560   0.00990
   0.97776   0.16619   0.12793
  -0.12445  -0.03127   0.99173
total stress in crystal reference u1 u2 u3 (MPa)
      572.50867     -358.58801     -267.47595
     -358.58801      869.94800       70.10828
     -267.47595       70.10828      137.49866
total stress in sample reference X Y Z (MPa)
      487.32104     -199.76056      -27.20195
     -199.76056     1092.63428       21.78822
      -27.20195       21.78822        0.00000
total principal stresses (MPa):     1153.32837      428.25290       -1.62587
total stress principal axes in sample reference:
       -0.28814        0.95727        0.02488
       -0.95622       -0.28902        0.04603
        0.05126       -0.01053        0.99863
dilatational strain (*10^-3):        1.78989
hydrostatic stress (MPa):      526.65179
Von Mises stress (MPa):     1011.05127
equivalent strain (*10^-3):        5.32021
equivalent stress (MPa):     1011.05127
maximum resolved shear stress:       16.49001
coordinates of a, b, c in X, Y, Z
   0.44443  -0.20245   0.23851
   0.19254   0.50579   0.06497
  -0.24572   0.03226   0.48109
coordinates of a*, b*, c* in X, Y, Z
   1.50608  -0.67797   0.81471
   0.65610   1.70073   0.22106
  -0.83527   0.10642   1.64674
