\\vmware-host\Shared Folders\Desktop\SiHyperlaueFinal_shielded_results\results_00057.STR
Number of grains:       1
Grain no:       1   Grainlist file index:       1    Number of peaks:      33
no   x(exp)  y(exp)  h  k  l xdev  ydev  angdev  energy  dspace  twotheta  intens   integr  xwidth   ywidth  tilt  rfactor   pearson  xcentroid  ycentroid
     2      392.62650      871.98199    -2     4    -2  -0.32501  -0.10859   0.01885  12.44706   0.11105  53.29176       58879.00      205140.42     1.79127     2.07086   178.40463     0.20987     0.00000   746.62549   746.62549
     5      746.30835      951.27173    -3     3    -1  -0.32453   0.54128   0.02123  11.59313   0.12490  50.69642       49419.00      127550.42     1.61604     1.92408   103.00217     0.18598     0.00000  1026.75024  1026.75024
    13      991.67059      299.61572    -4     2    -2   0.10035  -0.04654   0.00407   8.25866   0.11084  85.25798       49604.00       85902.42     1.22845     1.56211   179.17416     0.22879     0.00000   282.87640   282.87640
     3      546.03790      225.14268    -3     3    -3   0.11434   0.19452   0.00832   8.45265   0.10446  89.19006       38474.00       58614.42     1.23581     1.24524    17.07811     0.18537     0.00000   992.01056   992.01056
     6     1026.43152      909.51581    -5     3    -1  -0.27581   0.26158   0.01384  14.49300   0.09197  55.43332       46442.00      122458.42     1.61074     1.94344   160.38554     0.26098     0.00000   925.34607   925.34607
     7      924.98700      683.03540    -6     4    -2   0.09416   0.02210   0.00437  16.08249   0.07268  64.06147        1045.00        2224.42     1.14723     1.43596   179.10634     0.07672     0.00000    62.01690    62.01690
    36       61.80541      407.68427    -1     3    -3   0.23982   0.29194   0.01281   7.85947   0.12447  78.64978           0.00           0.00     0.00000     0.00000     0.00000     0.00000     0.00000     0.00000     0.00000
     4      426.62253      666.12299    -3     5    -3   0.45614  -0.13524   0.02518  14.35897   0.08292  62.75134       79210.00      261856.42     1.79985     1.87233     7.03637     0.23080     0.00000   546.38135   546.38135
    14      648.66705      500.23712    -6     6    -4   0.16309   0.01084   0.00849  18.19077   0.05795  72.04422       14567.00       25937.42     1.21740     1.46385     4.39664     0.19291     0.00000   258.90826   258.90826
     8      668.66693      570.50696    -5     5    -3   0.10629  -0.03603   0.00574  15.64122   0.07079  68.09175       47512.00      221019.42     1.90276     2.78907   175.23904     0.30583     0.00000   426.83069   426.83069
     9      868.08929      257.30954    -5     3    -3   0.07977   0.20393   0.00704  10.82862   0.08280  87.48602       24662.00       50812.42     1.08922     1.86292     0.04414     0.19710     0.00000   649.00598   649.00598
    11      331.58862      270.36295    -4     6    -6  -0.49771  -0.04341   0.02253  15.68196   0.05785  86.21170       31669.00       87170.42     1.71612     1.91234   121.17850     0.22036     0.00000   868.38800   868.38800
    10      282.61011      288.46786    -3     5    -5  -0.42462  -0.03968   0.01888  12.97614   0.07065  85.10164       62536.00       92681.42     1.08431     1.52224     0.03121     0.19390     0.00000   669.00244   669.00244
    19      258.61523      619.59204    -3     7    -5  -0.06075  -0.39162   0.01090  19.08994   0.05964  65.98119       23474.00       46207.42     1.24149     1.69388     6.97570     0.23823     0.00000   129.70169   129.70169
    17      858.86957      567.52039    -7     5    -3   0.16685  -0.27395   0.01113  18.24889   0.05968  69.39145        8707.00       21982.42     1.08883     1.95027   179.93074     0.30214     0.00000   464.02151   464.02151
    31      475.01218      454.84869    -6     8    -6   0.02596   0.04160   0.00186  21.96761   0.04659  74.55632         534.00        2235.42     1.24453     1.87515     1.40786     0.10101     0.00000   699.02148   699.02148
    20      463.66873      498.16913    -5     7    -5   0.35457  -0.13948   0.01897  19.31423   0.05462  71.98223       15424.00       30835.42     1.16862     1.71705   177.70190     0.22365     0.00000   439.09189   439.09189
    22      721.84979      228.63902    -8     6    -6   0.05252   0.03286   0.00257  18.98014   0.04655  89.11448       25945.00       38504.42     1.16834     1.28372   178.85951     0.19967     0.00000   753.87463   753.87463
    15      129.37689       39.61879    -3     5    -7  -0.20889   0.22614   0.00997  13.61994   0.05948  99.85721       15672.00       34434.42     1.47370     1.61749    26.49359     0.22480     0.00000   859.19727   859.19727
    18      438.69940       20.96145    -6     6    -8   0.42850   0.31826   0.01981  17.13949   0.04649 102.15998       10148.00       20144.42     1.23190     1.52502   177.53288     0.21764     0.00000   722.16974   722.16974
    30     1012.69568      601.58057    -9     5    -3   0.01343  -0.16501   0.00422  21.60176   0.05069  68.95943        5705.00        9918.42     1.12007     1.36144   177.30666     0.15428     0.00000   262.00348   262.00348
    16      753.58856      232.69550    -7     5    -5  -0.32736   0.20576   0.01579  16.22791   0.05456  88.87424         974.00        3227.42     1.55467     1.78223   172.82207     0.10468     0.00000   475.07297   475.07297
    21      145.61250      355.19171    -3     7    -7  -0.05785  -0.03906   0.00270  18.13704   0.05245  81.33028        1327.00        3611.42     1.34399     1.54342   169.73647     0.11372     0.00000  1013.00732  1013.00732
    23      364.75433      259.68405    -5     7    -7  -0.04588  -0.08724   0.00351  18.42341   0.04893  86.88904        7854.00       20338.42     1.23967     1.89514   179.18311     0.18007     0.00000   145.91753   145.91753
    29      784.09039       52.58369   -10     6    -8  -0.01132  -0.11527   0.00356  21.07634   0.03835 100.15057        4334.00       12431.42     1.39129     1.58251     0.00000     0.24117     0.00000   823.14362   823.14362
    32      300.67810       92.99800    -6     8   -10  -0.06656   0.00828   0.00269  21.53304   0.03834  97.34191        3015.00        6419.42     1.08200     1.50064   179.06866     0.16020     0.00000   454.99768   454.99768
    25      919.91034      273.31250    -9     5    -5   0.11113  -0.09159   0.00524  19.04892   0.04744  86.63123         965.00        3902.42     1.48437     1.79622   166.02406     0.14550     0.00000   784.08148   784.08148
    26       27.57297      162.41696    -3     7    -9   0.31625   0.04091   0.01068  18.66295   0.04597  92.52929         867.00        2687.42     1.12404     1.81320   177.08804     0.10343     0.00000   301.01321   301.01321
    24      822.79248       31.47003    -9     5    -7   0.24036  -0.21092   0.01072  18.39875   0.04356 101.32894       10903.00       17891.42     1.19666     1.30742     1.95377     0.18214     0.00000   365.10959   365.10959
    27      261.67990       78.65806    -5     7    -9  -0.07282  -0.04831   0.00315  18.84889   0.04354  98.10710        4062.00       12342.42     1.62728     1.82707    19.17534     0.19411     0.00000   920.16113   920.16113
    35      698.73621      226.28218    -9     7    -7   0.05434  -0.03343   0.00267  21.74927   0.04058  89.24986           0.00           0.00     0.00000     0.00000     0.00000     0.00000     0.00000     0.00000     0.00000
    28      454.66742       47.76123    -7     7    -9   0.00066   0.02976   0.00093  19.88931   0.04053 100.54002        4307.00       10826.42     1.39052     1.74075   169.19661     0.18016     0.00000    27.91117    27.91117
    33      971.52551       85.58886   -11     5    -7  -0.35042  -0.30664   0.01542  21.19154   0.03885  97.70704         703.00        2662.42     1.44427     1.53339     0.00000     0.11638     0.00000   971.99158   971.99158
latticeparameters=   0.54322   0.54489   0.54090  89.94905  90.19714  90.25837
dpsx, dpsy: 179.00000 168.38699
dd, xcent, ycent:      150.57201      540.60303      212.87601
pitch,yaw,roll:  -0.22645   0.61642   0.00000
dev1, dev2, pixdev:   0.01236   0.01211   0.25590
deviatoric strain in crystal reference u1 u2 u3 (*10^3)
   0.41294  -2.26252  -1.71374
  -2.26252   3.47202   0.43522
  -1.71374   0.43522  -3.87135
deviatoric strain in sample reference X Y Z (*10^3)
  -0.26638  -0.83236   0.48288
  -0.83236   4.70431   0.19406
   0.48288   0.19406  -4.42432
deviatoric principal strains (*10^3):   4.84140  -0.33898  -4.48881
deviatoric strain principal axes in sample reference:
  -0.15969   0.98709   0.01235
   0.97988   0.15698   0.12328
  -0.11975  -0.03179   0.99230
deviatoric stress in crystal reference u1 u2 u3 (MPa)
       42.86608     -359.78552     -272.51852
     -359.78552      353.97507       69.20818
     -272.51852       69.20818     -392.84579
deviatoric stress in sample reference X Y Z (MPa)
      -37.40394     -196.70116      -29.54865
     -196.70116      575.65723       23.73179
      -29.54865       23.73179     -534.25793
deviatoric principal stresses (MPa):      634.16895      -94.02396     -536.14960
deviatoric stress principal axes in sample reference:
       -0.28207        0.95903        0.02661
       -0.95784       -0.28308        0.04903
        0.05455       -0.01166        0.99844
total strain in sample reference X Y Z (*10^3)
   1.55379  -0.83236   0.48288
  -0.83236   6.52449   0.19406
   0.48288   0.19406  -2.60414
total principal strains (*10^3):   6.66157   1.48120  -2.66863
total strain principal axes in sample reference:
  -0.15969   0.98709   0.01235
   0.97988   0.15698   0.12328
  -0.11975  -0.03179   0.99230
total stress in crystal reference u1 u2 u3 (MPa)
      577.12402     -359.78552     -272.51852
     -359.78552      888.23297       69.20818
     -272.51852       69.20818      141.41212
total stress in sample reference X Y Z (MPa)
      496.85397     -196.70116      -29.54865
     -196.70116     1109.91516       23.73179
      -29.54865       23.73179        0.00000
total principal stresses (MPa):     1168.42688      440.23395       -1.89169
total stress principal axes in sample reference:
       -0.28207        0.95903        0.02661
       -0.95784       -0.28308        0.04903
        0.05455       -0.01166        0.99844
dilatational strain (*10^-3):        1.82018
hydrostatic stress (MPa):      535.58972
Von Mises stress (MPa):     1023.56860
equivalent strain (*10^-3):        5.39774
equivalent stress (MPa):     1023.56860
maximum resolved shear stress:       12.62540
coordinates of a, b, c in X, Y, Z
   0.44438  -0.20245   0.23848
   0.19254   0.50582   0.06502
  -0.24574   0.03223   0.48103
coordinates of a*, b*, c* in X, Y, Z
   1.50602  -0.67799   0.81480
   0.65599   1.70049   0.22119
  -0.83531   0.10629   1.64674
