\\vmware-host\Shared Folders\Desktop\SiHyperlaueFinal_shielded_results\results_00112.STR
Number of grains:       1
Grain no:       1   Grainlist file index:       1    Number of peaks:      32
no   x(exp)  y(exp)  h  k  l xdev  ydev  angdev  energy  dspace  twotheta  intens   integr  xwidth   ywidth  tilt  rfactor   pearson  xcentroid  ycentroid
     2      392.64066      872.00183    -2     4    -2  -0.29591  -0.11699   0.01723  12.44998   0.11103  53.29109       29176.00       92967.00     1.69630     2.04044   178.50542     0.21135     0.00000   746.67932   746.67932
     5      746.38214      951.28510    -3     3    -1  -0.38359   0.51177   0.02392  11.59476   0.12489  50.69715       33044.00       82526.00     1.56678     1.84061   168.62173     0.22326     0.00000  1026.78015  1026.78015
    14      991.68512      299.61926    -4     2    -2   0.14972  -0.09428   0.00636   8.25870   0.11083  85.26071       12035.00       27944.00     1.49723     1.67510    44.28288     0.22096     0.00000   859.20782   859.20782
     4      546.06903      225.15668    -3     3    -3   0.09383   0.18969   0.00760   8.45352   0.10445  89.18947       40008.00      140262.00     1.82406     1.87793    14.20022     0.22506     0.00000   546.38269   546.38269
     7     1026.48438      909.52533    -5     3    -1  -0.28412   0.23743   0.01397  14.49387   0.09196  55.43449       30595.00      148713.00     1.90734     2.91277   175.44632     0.31024     0.00000   426.88211   426.88211
     6      925.01270      683.00293    -6     4    -2   0.10168   0.04038   0.00475  16.08359   0.07267  64.06250       33966.00       89605.00     1.61815     1.93404    98.53215     0.26056     0.00000   925.35071   925.35071
     3      426.64774      666.12012    -3     5    -3   0.46345  -0.10334   0.02552  14.36205   0.08291  62.74976       24528.00       38377.00     1.23861     1.24932   168.88638     0.18462     0.00000   992.02405   992.02405
    12      648.66718      500.21130    -6     6    -4   0.17778   0.04617   0.00934  18.19314   0.05794  72.04371       30986.00       51940.00     1.21302     1.51695   179.28683     0.21265     0.00000   282.89572   282.89572
     8      668.66705      570.49866    -5     5    -3   0.12128  -0.01988   0.00646  15.64333   0.07078  68.09137       19267.00       40930.00     1.09046     1.87627   179.98466     0.18792     0.00000   649.01001   649.01001
    13      868.12415      257.26938    -5     3    -3   0.08292   0.20901   0.00724  10.82890   0.08280  87.48822       12414.00       21492.00     1.19325     1.44574     3.45517     0.17894     0.00000   258.92938   258.92938
     9      331.59628      270.37405    -4     6    -6  -0.48086  -0.01443   0.02172  15.68446   0.05784  86.20915       45172.00       67471.00     1.08463     1.53267   179.96242     0.19097     0.00000   669.00354   669.00354
    10      282.61624      288.49039    -3     5    -5  -0.39949  -0.01657   0.01772  12.97836   0.07064  85.09878       13041.00       38445.00     1.77700     1.90432    65.23579     0.19977     0.00000   868.35193   868.35193
    19      258.62488      619.59375    -3     7    -5  -0.01337  -0.35383   0.00931  19.09443   0.05963  65.97876       12210.00       24860.00     1.17691     1.72429   177.67812     0.21429     0.00000   439.08188   439.08188
    17      858.89563      567.49768    -7     5    -3   0.16783  -0.26330   0.01097  18.25025   0.05967  69.39230        8184.00       16970.00     1.24733     1.56459   177.66998     0.21050     0.00000   722.15076   722.15076
    31      475.07016      454.84317    -6     8    -6  -0.01113   0.07666   0.00238  21.97137   0.04659  74.55452        2546.00        5521.00     1.08640     1.49146     0.71013     0.14927     0.00000   454.98648   454.98648
    20      463.67014      498.15848    -5     7    -5   0.37640  -0.09796   0.01990  19.31775   0.05461  71.98039        1162.00        3250.00     1.32198     1.57087   171.21109     0.11022     0.00000  1013.01007  1013.01007
    21      721.87109      228.63081    -8     6    -6   0.04962   0.02374   0.00235  18.98124   0.04655  89.11560       20336.00       29527.00     1.15762     1.26360   179.30736     0.18411     0.00000   753.88403   753.88403
    15      129.38322       39.62785    -3     5    -7  -0.19414   0.26496   0.01041  13.62171   0.05947  99.85457         814.00        2943.00     1.49778     1.82843   178.07320     0.10348     0.00000   475.04791   475.04791
    18      438.70303       20.96638    -6     6    -8   0.42632   0.31560   0.01969  17.14086   0.04649 102.15984       15891.00       30816.00     1.21958     1.68515     6.00067     0.21633     0.00000   129.73296   129.73296
    30     1012.71539      601.55756    -9     5    -3   0.04692  -0.16166   0.00466  21.60256   0.05069  68.96093         474.00        1981.00     1.30264     1.98691     8.50770     0.09413     0.00000   699.02966   699.02966
    16      753.59601      232.69061    -7     5    -5  -0.31322   0.18904   0.01501  16.22874   0.05456  88.87563        7248.00       17843.00     1.08993     1.95007   179.96902     0.29878     0.00000   464.01477   464.01477
    22      145.61583      355.20728    -3     7    -7  -0.00405   0.00125   0.00017  18.14066   0.05244  81.32684        6508.00       16750.00     1.23714     1.89493   179.77538     0.16926     0.00000   145.91818   145.91818
    23      364.76593      259.68802    -5     7    -7  -0.03684  -0.05538   0.00246  18.42619   0.04893  86.88675        8822.00       14827.00     1.19431     1.33540     0.83971     0.17485     0.00000   365.10928   365.10928
    29      784.18109       52.51042   -10     6    -8  -0.07247  -0.09486   0.00413  21.07659   0.03835 100.15372        4916.00        8570.00     1.11593     1.32599   178.84785     0.14700     0.00000   261.99936   261.99936
    33      300.67999       92.97579    -6     8   -10  -0.05611   0.06208   0.00299  21.53565   0.03833  97.33999         610.00        2434.22     1.36405     1.79847    16.01220     0.11308     0.00000   971.97046   971.97046
    24      919.97107      273.26474    -9     5    -5   0.09823  -0.08352   0.00468  19.04923   0.04744  86.63369         764.00        3493.00     1.69752     1.90754    96.90543     0.12492     0.00000   784.09338   784.09338
    26       27.57885      162.45912    -3     7    -9   0.36259   0.06255   0.01229  18.66601   0.04597  92.52580        3173.00       10645.00     1.76566     1.82786    89.26062     0.17160     0.00000   920.15289   920.15289
    25      822.88171       31.34648    -9     5    -7   0.18876  -0.15111   0.00819  18.39876   0.04356 101.33263         761.00        2332.00     1.13355     1.80215   176.88670     0.09481     0.00000   300.99771   300.99771
    27      261.67676       78.66346    -5     7    -9  -0.05589  -0.01841   0.00223  18.85121   0.04354  98.10500        3638.00        8918.00     1.37699     1.68218   169.03149     0.16658     0.00000    27.92238    27.92238
    35      698.75684      226.40286    -9     7    -7   0.05010  -0.16817   0.00584  21.75066   0.04057  89.25078           0.00           0.00     0.00000     0.00000     0.00000     0.00000     0.00000     0.00000     0.00000
    28      454.66757       47.75891    -7     7    -9   0.00360   0.03559   0.00112  19.89096   0.04053 100.53980        3542.00       10558.00     1.48965     1.89976    55.67155     0.20059     0.00000   823.12537   823.12537
    32      971.54517       85.54743   -11     5    -7  -0.29795  -0.34216   0.01467  21.19114   0.03885  97.71126         580.00        2450.00     1.40577     1.75977    15.66973     0.11402     0.00000   971.99683   971.99683
latticeparameters=   0.54329   0.54478   0.54094  89.94776  90.18946  90.25693
dpsx, dpsy: 179.00000 168.38699
dd, xcent, ycent:      150.57201      540.60303      212.87601
pitch,yaw,roll:  -0.22645   0.61642   0.00000
dev1, dev2, pixdev:   0.01226   0.01210   0.25094
deviatoric strain in crystal reference u1 u2 u3 (*10^3)
   0.54132  -2.24944  -1.64710
  -2.24944   3.26690   0.44673
  -1.64710   0.44673  -3.79553
deviatoric strain in sample reference X Y Z (*10^3)
  -0.23629  -0.92392   0.53160
  -0.92392   4.53553   0.14634
   0.53160   0.14634  -4.28655
deviatoric principal strains (*10^3):   4.70841  -0.33259  -4.36313
deviatoric strain principal axes in sample reference:
  -0.18313   0.98307   0.00517
   0.97386   0.18069   0.13762
  -0.13436  -0.03024   0.99047
deviatoric stress in crystal reference u1 u2 u3 (MPa)
       55.86385     -357.70602     -261.92233
     -357.70602      333.05539       71.03970
     -261.92233       71.03970     -385.19373
deviatoric stress in sample reference X Y Z (MPa)
      -36.95888     -205.01402      -22.18310
     -205.01402      557.79248       18.48151
      -22.18310       18.48151     -517.10809
deviatoric principal stresses (MPa):      622.12939     -100.19077     -518.21307
deviatoric stress principal axes in sample reference:
       -0.29761        0.95445        0.02128
       -0.95376       -0.29823        0.03753
        0.04216       -0.00913        0.99907
total strain in sample reference X Y Z (*10^3)
   1.52546  -0.92392   0.53160
  -0.92392   6.29728   0.14634
   0.53160   0.14634  -2.52481
total principal strains (*10^3):   6.47016   1.42916  -2.60139
total strain principal axes in sample reference:
  -0.18313   0.98307   0.00517
   0.97386   0.18069   0.13762
  -0.13436  -0.03024   0.99047
total stress in crystal reference u1 u2 u3 (MPa)
      572.97192     -357.70602     -261.92233
     -357.70602      850.16345       71.03970
     -261.92233       71.03970      131.91434
total stress in sample reference X Y Z (MPa)
      480.14920     -205.01402      -22.18310
     -205.01402     1074.90051       18.48151
      -22.18310       18.48151        0.00000
total principal stresses (MPa):     1139.23743      416.91733       -1.10502
total stress principal axes in sample reference:
       -0.29760        0.95445        0.02128
       -0.95376       -0.29823        0.03753
        0.04216       -0.00913        0.99907
dilatational strain (*10^-3):        1.76175
hydrostatic stress (MPa):      518.34991
Von Mises stress (MPa):      999.21722
equivalent strain (*10^-3):        5.24828
equivalent stress (MPa):      999.21722
maximum resolved shear stress:       22.84222
coordinates of a, b, c in X, Y, Z
   0.44452  -0.20240   0.23860
   0.19246   0.50581   0.06494
  -0.24576   0.03227   0.48114
coordinates of a*, b*, c* in X, Y, Z
   1.50617  -0.67770   0.81476
   0.65597   1.70119   0.22097
  -0.83545   0.10645   1.64677
