SiHyperlaueFinal_00102.tif
number of grains found:       1
grain no:       0     grainlist file index:       1
number of indexed reflections:      32
       x(exp)          y(exp)      h     k     l   ang_dev. xdev(pix) ydev(pix) Ener(keV) 2theta(deg)   chi(deg)intensity  integr    xwidth(pix) ywidth(pix)  tilt(deg)    rfact       pearson  xcentr(pix) ycentr(pix)   strfac  theor_integr  fit_intensity    fit_integr    fit_backg    harm   lin_abs
      392.63895      871.98169    -2     4    -2   0.03981   0.32781  -1.74262  12.47257  53.28573   9.14797   84559.0  162395.0     1.15371     1.85739     1.95267     0.17856     0.00000   392.91312   872.33191            1.7         2167.3        74521.0       180943.6           96.2     1       41.52557
      746.37549      951.26514    -3     3    -1   0.05407  -0.69955  -2.02289  11.61887  50.72039 -13.73346   30054.0   98172.0     1.70660     2.04675   178.57494     0.21001     0.00000   746.67334   951.63586            1.3         1392.1        29371.0       116246.0           96.2     1       51.31370
      991.68683      299.61920    -4     2    -2   0.00695  -0.11331   0.18609   8.25873  85.25486 -27.26549   24612.0   38586.0     1.23956     1.24819   167.05946     0.18625     0.00000   992.03485   299.98776            1.7         1048.5        21327.2        37389.2           96.2     2      140.78854
      546.06616      225.14754    -3     3    -3   0.02109   0.28513   0.49924   8.44858  89.20239  -0.36539   40681.0  140932.0     1.82342     1.87654    16.39500     0.22461     0.00000   546.37665   225.46126            1.2         2623.5        42845.8       166118.7           96.2     4      131.72765
     1026.47156      909.49469    -5     3    -1   0.07106  -1.42259  -2.11031  14.51849  55.44852 -29.42602   33537.0   84518.0     1.60932     1.87420   157.74957     0.23266     0.00000  1026.77747   909.83142            1.0          745.1        27595.7        94312.0           96.2     1       26.36476
      925.01672      683.01044    -6     4    -2   0.03238  -0.58104  -0.83448  16.10811  64.06310 -23.98109   34310.0   90767.0     1.67185     1.89591    81.85931     0.25953     0.00000   925.34796   683.36505            1.2          663.3        28549.6       102536.6           96.2     1       19.32637
      426.64264      666.11505    -3     5    -3   0.05383   0.94144  -0.66826  14.38027  62.74597   7.10127   30778.0  149829.0     1.90397     2.89563   175.82233     0.30749     0.00000   426.87717   666.53137            0.9          465.6        28834.8       180129.0           96.2     1       27.13017
      648.66736      500.21283    -6     6    -4   0.01161   0.22301   0.01218  18.21070  72.04579  -7.22945   19523.0   41313.0     1.08965     1.87330     0.06948     0.18907     0.00000   649.00415   500.77393            0.8          282.7        19197.6        44402.2           96.2     1       13.41351
      668.66724      570.49274    -5     5    -3   0.00951   0.10872  -0.26799  15.66395  68.09012  -8.56361   45363.0   68138.0     1.08461     1.54688   179.99191     0.18937     0.00000   669.00317   570.81610            0.8          273.4        39295.9        74703.2           96.2     1       21.00954
      868.11969      257.27521    -5     3    -3   0.01636  -0.00397   0.53580  10.82617  87.50049 -20.50065   13290.0   39044.0     1.82616     1.84711    97.38945     0.20606     0.00000   868.34521   257.69101            0.9          258.7        12142.4        46409.0           96.2     1       63.33227
      331.59409      270.36810    -4     6    -6   0.01258  -0.23483   0.22008  15.67311  86.20848  13.36395   25697.0   53661.0     1.27149     1.73511   178.52158     0.23411     0.00000   331.86786   270.78049            0.8          212.8        22127.1        55313.0           96.2     1       20.97288
      282.61411      288.47650    -3     5    -5   0.00946  -0.15561   0.21330  12.96819  85.09828  16.34159   30649.0   52180.0     1.21804     1.54548   179.50984     0.21253     0.00000   282.89401   288.79477            0.8          186.5        26079.0        55626.2           96.2     1       36.95986
      258.62213      619.59082    -3     7    -5   0.03423   0.61310  -0.68965  19.10752  65.96038  17.58721   12191.0   21300.0     1.19888     1.45461     3.67463     0.18001     0.00000   258.93744   619.98499            0.6          184.2        10337.4        20426.7           96.2     1       11.63415
      858.89301      567.49707    -7     5    -3   0.01922  -0.25322  -0.58337  18.27607  69.37689 -20.18843   11931.0   27532.0     1.50990     1.66306    23.35836     0.21622     0.00000   859.19775   567.92944            0.6          165.8        10037.8        28560.2           96.2     1       13.27172
      475.03683      454.82660    -6     8    -6   0.01836   0.33922   0.16466  21.98093  74.56019   4.10897     854.0    2948.0     1.52639     1.81204   174.81593     0.10105     0.00000   475.05304   455.07559            0.6          138.5          665.6         2086.1           96.2     1        7.71556
      463.67047      498.14297    -5     7    -5   0.03808   0.72392  -0.10685  19.33159  71.97589   4.81816    7476.0   18098.0     1.09177     1.94287     0.13535     0.29875     0.00000   464.01630   498.35580            0.6          118.9         7323.1        17600.8           96.2     1       11.24046
      721.86041      228.63556    -8     6    -6   0.01282   0.12526   0.35985  18.97582  89.11676 -11.68358    8298.0   16716.0     1.23876     1.54595   177.62234     0.20356     0.00000   722.14349   229.11435            0.6          107.6         6978.5        15143.0           96.2     1       11.87441
      129.38274       39.62544    -3     5    -7   0.02634  -0.73580   0.20105  13.59062  99.87081  25.19393   15609.0   30543.0     1.22738     1.68723     6.25826     0.21729     0.00000   129.74318    39.92253            0.6          107.3        13262.9        31121.1           96.2     1       32.12440
      438.69937       20.96316    -6     6    -8   0.02229   0.48995   0.33935  17.11049 102.17860   6.75200   12204.0   24595.0     1.16828     1.72145   177.89578     0.21239     0.00000   439.07373    21.32365            0.6          103.6        10507.9        23945.4           96.2     1       16.14283
     1012.70013      601.53943    -9     5    -3   0.03291  -0.71257  -0.67704  21.62829  68.95314 -28.53641    1103.0    3159.0     1.34794     1.63935   172.68073     0.10248     0.00000  1013.00720   602.05518            0.5          103.4          838.5         2099.5           96.2     1        8.08712
      753.59583      232.69092    -7     5    -5   0.02078  -0.27749   0.53185  16.22301  88.88791 -13.65910   20063.0   29301.0     1.15923     1.26553   177.98891     0.18559     0.00000   753.88586   233.10858            0.6           86.7        17507.4        29102.7           96.2     1       18.92071
      145.61311      355.19803    -3     7    -7   0.01076   0.20568   0.21281  18.12347  81.32745  24.16679    6539.0   17002.0     1.24669     1.90131   179.26518     0.16815     0.00000   145.93620   355.84689            0.5           85.7         6361.1        17084.6           96.2     1       13.60594
      364.76062      259.68713    -5     7    -7   0.01134   0.21060   0.18420  18.41407  86.88327  11.30330    8625.0   14624.0     1.19713     1.32225     0.73525     0.17820     0.00000   365.09833   260.11142            0.5           64.0         7380.1        13236.8           96.2     1       12.97904
      784.14905       52.51563   -10     6    -8   0.00772   0.16659   0.12838  21.05403 100.14753 -15.39806     800.0    3683.0     1.60846     1.93988    81.41739     0.13956     0.00000   784.08691    53.09851            0.5           61.2          623.1         2203.1           96.2     1        8.74758
      300.68335       93.04230    -6     8   -10   0.00437  -0.08704   0.08281  21.50134  97.33988  15.36364     793.0    2388.0     1.12189     1.83917   177.22234     0.09439     0.00000   300.98825    93.11737            0.5           61.1          618.3         1445.6           96.2     1        8.22701
      919.95135      273.24643    -9     5    -5   0.00769  -0.04048   0.25126  19.04805  86.62956 -23.42276    3075.0   10450.0     1.68677     1.87411    19.91418     0.18075     0.00000   920.15820   273.97540            0.4           58.4         2721.8         9749.2           96.2     1       11.74182
       27.57799      162.45576    -3     7    -9   0.00915  -0.17850   0.24183  18.62900  92.52883  30.33583    3654.0    9024.0     1.38901     1.68225   167.88007     0.16904     0.00000    27.93666   162.95708            0.4           50.8         2934.7         7770.2           96.2     1       12.54047
      822.86993       31.34577    -9     5    -7   0.01682   0.44337   0.05307  18.37776 101.32425 -17.70406    3485.0   10530.0     1.60499     1.76482    86.88766     0.20580     0.00000   823.13135    32.04107            0.4           42.9         2770.6         8892.3           96.2     1       13.05520
      261.67764       78.65707    -5     7    -9   0.00692  -0.17513   0.03615  18.81850  98.10446  17.71092    4840.0    8469.0     1.11835     1.35982   176.76517     0.14450     0.00000   262.02646    79.09754            0.4           42.7         4130.0         7116.6           96.2     1       12.17040
      698.72949      226.26260    -9     7    -7   0.01241   0.16266   0.31012  21.74451  89.24892 -10.22592     436.0    2067.0     1.23889     2.03783     1.31119     0.09792     0.00000   699.01324   227.04408            0.4           36.7          307.4          879.3           96.2     1        7.96196
      454.66501       47.77185    -7     7    -9   0.00535   0.10237   0.10561  19.86106 100.54121   5.70470    2477.0    5300.0     1.07773     1.51290   179.37479     0.14450     0.00000   454.97095    48.17274            0.4           35.2         2044.0         3776.2           96.2     1       10.38001
      971.55853       85.52058   -11     5    -7   0.00458  -0.13058  -0.01568  21.17371  97.69223 -26.07377     625.0    2438.0     1.36988     1.68566     6.74510     0.10963     0.00000   971.96600    86.04552            0.3           31.5          453.4         1186.4           96.2     1        8.60392
 dev1, dev2, pixdev=    0.0326400    0.0261800    0.0206500
matrix X  Y  Z -> h  k  l
   0.44378  -0.20020   0.24047
   0.19304   0.50360   0.06302
  -0.24625   0.03398   0.48276
matrix h  k  l -> X  Y  Z
   1.50512   0.65470  -0.83519
  -0.67899   1.70800   0.11525
   0.81556   0.21374   1.63730
Number of missing reflections:      11
x(exp)   y(exp)   h  k  l   energy(keV)   theta(deg)    strfac    theor_integr
      546.35132      225.64677    -4     4    -4  11.26800  89.16999        1.26000      452.52200
      546.35132      225.64677    -5     5    -5  14.08501  89.16999        0.67400      129.38300
      991.57355      299.80530    -8     4    -4  16.51919  85.24381        0.79700      189.47000
      546.35132      225.64677    -7     7    -7  19.71901  89.16999        0.41100       48.06600
      200.37560      748.61682    -2     6    -4  17.06928  60.06886        1.15300      765.54901
       62.28813      408.25018    -1     3    -3   7.85416  78.63349        1.28600      552.77802
        1.69935       14.91443    -2     4    -6  11.10777 100.55489        1.15300      363.42300
        7.12629      891.69617    -1     7    -5  21.00885  56.14922        0.67400      304.38101
      204.77003      323.66977    -4     8    -8  20.66553  83.04974        0.58900      107.12800
      634.55017      454.13400    -7     7    -5  20.85706  74.75659        0.46800       79.91300
      616.94995       49.09859    -9     7    -9  21.55706 100.58173        0.32400       28.72500
Rfactor:      0.55609000
Rotangle(deg):       35.22542
Rodrigues vector:       -0.01472        0.24667        0.19930       35.22542
Quaternion:        0.95312       -0.01403        0.23511        0.18995
Euler angles:        4.02634       24.39460       23.50803
orsnr, orsirxy, orsirxz, orsiryz:  27.24548 -24.28111 -27.02615   4.02634
 Rotation matrix, unit cell to sample:
   0.81728   0.35550  -0.45351
  -0.36869   0.92744   0.06258
   0.44285   0.11606   0.88905
 Rotation matrix, sample to unit cell:
   0.81728  -0.36869   0.44285
   0.35550   0.92744   0.11606
  -0.45351   0.06258   0.88905
Sum of integrated intensities:  1115239.75000
Average integrated intensity per peak:    37174.66016
scale:   0.00997000
depth:    -0.838350
Unindexed reflections:       0
Xstage position:      6000.00
Ystage position:      10040.0
X map position:     102
Y map position:       1
Izero:       2646.0000
Channel A:      0.00000000
Channel B:      0.00000000
Channel C:      0.00000000
Channel D:      0.00000000
Channel E:      0.00000000
Exposure:      2.50000
Average intensity of the image :       105.50026
Average background of the image:       103.69223
