\\vmware-host\Shared Folders\Desktop\SiHyperlaueFinal_shielded_results\results_00010.STR
Number of grains:       1
Grain no:       1   Grainlist file index:       1    Number of peaks:      33
no   x(exp)  y(exp)  h  k  l xdev  ydev  angdev  energy  dspace  twotheta  intens   integr  xwidth   ywidth  tilt  rfactor   pearson  xcentroid  ycentroid
     2      392.61664      871.97925    -2     4    -2  -0.33251  -0.11510   0.01930  12.44805   0.11105  53.29222       73990.00      260927.33     1.82832     2.05280   168.83611     0.21690     0.00000   746.59760   746.59760
     4      746.26208      951.27716    -3     3    -1  -0.31038   0.54661   0.02059  11.59401   0.12490  50.69576      108184.00      352153.31     1.77788     1.87407     0.30425     0.23310     0.00000   546.36823   546.36823
    13      991.65656      299.62253    -4     2    -2   0.11688  -0.01542   0.00447   8.25886   0.11084  85.25580       59757.00      104092.33     1.24223     1.56156   179.20631     0.23191     0.00000   282.86615   282.86615
     3      546.01599      225.15608    -3     3    -3   0.12860   0.19903   0.00887   8.45295   0.10446  89.18889       51158.00       75618.33     1.22659     1.23260   165.60387     0.18027     0.00000   991.98248   991.98248
     6     1026.40735      909.55487    -5     3    -1  -0.28139   0.26393   0.01409  14.49396   0.09197  55.43132       49273.00      134037.33     1.65211     1.90882   101.82440     0.24894     0.00000   925.32910   925.32910
     7      924.96259      683.08844    -6     4    -2   0.09521   0.00449   0.00443  16.08344   0.07268  64.05953        2507.00        4334.33     1.14932     1.40658     1.84495     0.09410     0.00000    62.03648    62.03648
    29       61.78714      407.68655    -1     3    -3   0.25625   0.28976   0.01327   7.85991   0.12446  78.64979        5022.00       13330.33     1.42983     1.72526    40.24204     0.23039     0.00000   823.13635   823.13635
     5      426.60327      666.13977    -3     5    -3   0.45889  -0.14387   0.02535  14.36009   0.08292  62.75097       54649.00      143368.33     1.64982     1.87693   106.60265     0.19567     0.00000  1026.72986  1026.72986
    15      648.66656      500.26355    -6     6    -4   0.14538   0.00710   0.00757  18.19188   0.05795  72.04283       17617.00       36802.33     1.43473     1.56530    71.14489     0.22694     0.00000   859.19019   859.19019
     9      668.66681      570.52679    -5     5    -3   0.08567  -0.03348   0.00465  15.64224   0.07079  68.09042       27485.00       54924.33     1.08963     1.84279   179.97508     0.20097     0.00000   648.99817   648.99817
     8      868.06055      257.36279    -5     3    -3   0.10672   0.18069   0.00706  10.82889   0.08280  87.48418       57154.00      252296.33     1.89658     2.68745   175.41991     0.30435     0.00000   426.80295   426.80295
    12      331.58267      270.36285    -4     6    -6  -0.49901  -0.03120   0.02256  15.68270   0.05785  86.21093       37782.00       80747.33     1.29916     1.74031   178.04825     0.25032     0.00000   331.84427   331.84427
    10      282.60489      288.46857    -3     5    -5  -0.42606  -0.02985   0.01892  12.97678   0.07064  85.10099       71800.00      104411.33     1.08367     1.48733   179.95593     0.19338     0.00000   669.00354   669.00354
    19      258.60809      619.59283    -3     7    -5  -0.06245  -0.39054   0.01090  19.09136   0.05964  65.98115       28492.00       56126.33     1.24289     1.69165     7.16449     0.24688     0.00000   129.67986   129.67986
    17      858.85114      567.54822    -7     5    -3   0.16556  -0.26966   0.01101  18.24989   0.05968  69.38957        9235.00       23623.33     1.08713     1.94976     0.05593     0.30137     0.00000   464.00565   464.00565
    32      474.97284      454.84155    -6     8    -6   0.05129   0.06565   0.00335  21.96901   0.04659  74.55530        3253.00        6658.33     1.08210     1.47347   177.62418     0.16155     0.00000   454.96738   454.96738
    20      463.66840      498.18893    -5     7    -5   0.34019  -0.14350   0.01825  19.31554   0.05462  71.98132       16543.00       33856.33     1.17133     1.76415   177.74104     0.21797     0.00000   439.08420   439.08420
    22      721.82568      228.64740    -8     6    -6   0.07122   0.04786   0.00354  18.98068   0.04655  89.11298       28922.00       43885.33     1.18342     1.29629   178.82388     0.21234     0.00000   753.86530   753.86530
    14      129.37798       39.61794    -3     5    -7  -0.21454   0.22554   0.01010  13.62023   0.05948  99.85727       15070.00       26917.33     1.23469     1.45852     5.86964     0.19667     0.00000   258.91498   258.91498
    18      438.69971       20.99340    -6     6    -8   0.42718   0.29339   0.01940  17.13974   0.04649 102.15954       11327.00       21554.33     1.22119     1.47457   177.89148     0.21619     0.00000   722.17438   722.17438
    31     1012.69092      601.61890    -9     5    -3   0.00208  -0.16014   0.00402  21.60282   0.05069  68.95711         582.00        2338.33     1.25103     2.00402     7.15799     0.10538     0.00000   698.98462   698.98462
    16      753.58264      232.70303    -7     5    -5  -0.32621   0.22283   0.01598  16.22836   0.05456  88.87267        1066.00        3465.33     1.54773     1.73525   170.71037     0.11330     0.00000   475.07028   475.07028
    21      145.60251      355.19092    -3     7    -7  -0.05196  -0.03339   0.00240  18.13802   0.05245  81.33000        1492.00        3689.33     1.30367     1.50495   172.53978     0.10639     0.00000  1013.00714  1013.00714
    23      364.75018      259.68839    -5     7    -7  -0.04927  -0.07848   0.00339  18.42424   0.04893  86.88820        8476.00       22447.33     1.26876     1.89404   179.17528     0.18818     0.00000   145.91505   145.91505
    30      784.09998       52.59170   -10     6    -8  -0.01233  -0.10473   0.00325  21.07647   0.03835 100.14942        6233.00       10756.33     1.11500     1.37242   177.48866     0.15752     0.00000   262.03998   262.03998
    34      300.67938       93.02820    -6     8   -10  -0.07189  -0.01534   0.00291  21.53360   0.03834  97.34150         522.00        2764.24     1.23885     2.33164     5.66252     0.52932     0.00000   615.84363   615.84363
    25      919.90936      273.34610    -9     5    -5   0.11198  -0.09215   0.00528  19.04938   0.04744  86.62925        1072.00        4246.33     1.49422     1.83618   168.13107     0.14311     0.00000   784.09644   784.09644
    26       27.57478      162.40662    -3     7    -9   0.31049   0.05018   0.01051  18.66356   0.04597  92.52935         892.00        2741.33     1.11984     1.85514   176.86502     0.10635     0.00000   301.00705   301.00705
    24      822.84723       31.45718    -9     5    -7   0.19816  -0.17934   0.00893  18.39879   0.04356 101.32778       11652.00       19331.33     1.20740     1.29523     1.72870     0.19105     0.00000   365.11441   365.11441
    27      261.67755       78.65965    -5     7    -9  -0.07442  -0.04514   0.00316  18.84935   0.04354  98.10680        4471.00       13177.33     1.62391     1.79061    20.98395     0.20237     0.00000   920.15247   920.15247
    36      698.72675      226.39656    -9     7    -7   0.05797  -0.12528   0.00478  21.74991   0.04058  89.24841           0.00           0.00     0.00000     0.00000     0.00000     0.00000     0.00000     0.00000     0.00000
    28      454.66501       47.76534    -7     7    -9   0.00137   0.03456   0.00108  19.88966   0.04053 100.53946        4645.00       11650.33     1.39352     1.73172   169.19905     0.18476     0.00000    27.89080    27.89080
    33      971.54724       85.61227   -11     5    -7  -0.35306  -0.30185   0.01541  21.19162   0.03885  97.70536         754.00        2760.33     1.36897     1.66190    18.70930     0.11952     0.00000   971.95129   971.95129
latticeparameters=   0.54324   0.54484   0.54093  89.94777  90.19279  90.25725
dpsx, dpsy: 179.00000 168.38699
dd, xcent, ycent:      150.57201      540.60303      212.87601
pitch,yaw,roll:  -0.22645   0.61642   0.00000
dev1, dev2, pixdev:   0.01231   0.01206   0.25691
deviatoric strain in crystal reference u1 u2 u3 (*10^3)
   0.45106  -2.25253  -1.67598
  -2.25253   3.37390   0.44658
  -1.67598   0.44658  -3.81190
deviatoric strain in sample reference X Y Z (*10^3)
  -0.26698  -0.86806   0.49399
  -0.86806   4.61835   0.18059
   0.49399   0.18059  -4.33831
deviatoric principal strains (*10^3):   4.76899  -0.34953  -4.40640
deviatoric strain principal axes in sample reference:
  -0.16887   0.98558   0.01038
   0.97768   0.16616   0.12860
  -0.12502  -0.03187   0.99164
deviatoric stress in crystal reference u1 u2 u3 (MPa)
       46.70842     -358.19727     -266.51453
     -358.19727      343.96106       71.01519
     -266.51453       71.01519     -386.83484
deviatoric stress in sample reference X Y Z (MPa)
      -38.97564     -199.77373      -26.94594
     -199.77373      566.46283       22.43301
      -26.94594       22.43301     -523.65253
deviatoric principal stresses (MPa):      627.18268      -98.07447     -525.27350
deviatoric stress principal axes in sample reference:
       -0.28810        0.95726        0.02541
       -0.95626       -0.28900        0.04531
        0.05072       -0.01124        0.99865
total strain in sample reference X Y Z (*10^3)
   1.51707  -0.86806   0.49399
  -0.86806   6.40239   0.18059
   0.49399   0.18059  -2.55427
total principal strains (*10^3):   6.55303   1.43452  -2.62235
total strain principal axes in sample reference:
  -0.16887   0.98558   0.01038
   0.97768   0.16616   0.12860
  -0.12502  -0.03187   0.99164
total stress in crystal reference u1 u2 u3 (MPa)
      570.36096     -358.19727     -266.51453
     -358.19727      867.61359       71.01519
     -266.51453       71.01519      136.81770
total stress in sample reference X Y Z (MPa)
      484.67691     -199.77373      -26.94594
     -199.77373     1090.11536       22.43301
      -26.94594       22.43301        0.00000
total principal stresses (MPa):     1150.83508      425.57809       -1.62097
total stress principal axes in sample reference:
       -0.28810        0.95726        0.02541
       -0.95626       -0.28900        0.04531
        0.05072       -0.01124        0.99865
dilatational strain (*10^-3):        1.78404
hydrostatic stress (MPa):      524.93073
Von Mises stress (MPa):     1009.12146
equivalent strain (*10^-3):        5.30922
equivalent stress (MPa):     1009.12146
maximum resolved shear stress:       16.54265
coordinates of a, b, c in X, Y, Z
   0.44442  -0.20244   0.23851
   0.19254   0.50579   0.06497
  -0.24572   0.03227   0.48110
coordinates of a*, b*, c* in X, Y, Z
   1.50608  -0.67797   0.81471
   0.65610   1.70074   0.22103
  -0.83528   0.10643   1.64671
