\\vmware-host\Shared Folders\Desktop\SiHyperlaueFinal_shielded_results\results_00144.STR
Number of grains:       1
Grain no:       1   Grainlist file index:       1    Number of peaks:      32
no   x(exp)  y(exp)  h  k  l xdev  ydev  angdev  energy  dspace  twotheta  intens   integr  xwidth   ywidth  tilt  rfactor   pearson  xcentroid  ycentroid
     4      392.64130      872.04749    -2     4    -2  -0.28846  -0.13134   0.01688  12.44984   0.11103  53.28974       34094.00      125415.20     1.83519     1.88457   175.38159     0.22347     0.00000   546.38483   546.38483
     8      746.40167      951.31769    -3     3    -1  -0.38853   0.48518   0.02395  11.59446   0.12489  50.69703       17935.00       38574.20     1.09041     1.87598     0.00000     0.19209     0.00000   649.00336   649.00336
    13      991.68878      299.60773    -4     2    -2   0.14928  -0.10937   0.00655   8.25855   0.11083  85.26225       11541.00       20078.20     1.19128     1.44809     3.14043     0.17563     0.00000   258.93869   258.93869
     3      546.08783      225.18391    -3     3    -3   0.07720   0.15816   0.00631   8.45340   0.10445  89.18976       22295.00       35975.20     1.24708     1.27068     5.58213     0.19158     0.00000   992.04785   992.04785
     6     1026.47522      909.48822    -5     3    -1  -0.25728   0.25188   0.01298  14.49335   0.09196  55.43561       28989.00       78350.20     1.69442     1.87685    71.34263     0.24345     0.00000   925.34827   925.34827
     5      925.03149      682.99573    -6     4    -2   0.09589   0.02902   0.00446  16.08310   0.07267  64.06352       25433.00       65124.20     1.60876     1.89464   160.67941     0.22165     0.00000  1026.79126  1026.79126
     2      426.66568      666.13385    -3     5    -3   0.45272  -0.10242   0.02493  14.36178   0.08291  62.74899       20283.00       62100.20     1.66169     2.04043   177.38040     0.20012     0.00000   746.71356   746.71356
    12      648.66772      500.20956    -6     6    -4   0.18488   0.04309   0.00970  18.19272   0.05794  72.04401       28624.00       47746.20     1.20385     1.50727   179.07120     0.21015     0.00000   282.89938   282.89938
     7      668.66699      570.49091    -5     5    -3   0.13026  -0.01620   0.00693  15.64294   0.07079  68.09164       25957.00      130649.20     1.91025     2.98400   176.48177     0.30929     0.00000   426.91193   426.91193
    14      868.15131      257.25772    -5     3    -3   0.05841   0.20090   0.00659  10.82873   0.08280  87.48943       10941.00       26460.20     1.52864     1.70398    35.26297     0.21839     0.00000   859.20972   859.20972
     9      331.59976      270.39078    -4     6    -6  -0.48169  -0.02540   0.02177  15.68426   0.05784  86.20879       41020.00       62111.20     1.08470     1.54797   179.88620     0.19217     0.00000   669.00330   669.00330
    10      282.62024      288.49622    -3     5    -5  -0.40065  -0.01421   0.01777  12.97820   0.07064  85.09826       10980.00       33667.20     1.68786     2.01826   138.79979     0.18957     0.00000   868.34467   868.34467
    19      258.62555      619.59888    -3     7    -5  -0.00887  -0.33747   0.00886  19.09418   0.05963  65.97760       11534.00       23494.20     1.17404     1.72773   177.64111     0.21127     0.00000   439.07382   439.07382
    17      858.91473      567.48126    -7     5    -3   0.15909  -0.26296   0.01065  18.24976   0.05968  69.39325        7841.00       16455.20     1.24919     1.56849   177.47273     0.21109     0.00000   722.15173   722.15173
    31      475.09366      454.82599    -6     8    -6  -0.02911   0.09706   0.00328  21.97094   0.04659  74.55432        2438.00        5369.20     1.08089     1.52990     0.44246     0.14706     0.00000   454.99377   454.99377
    20      463.67114      498.15167    -5     7    -5   0.38135  -0.08599   0.02012  19.31736   0.05461  71.98008        1077.00        3098.20     1.42234     1.60142     0.00000     0.10246     0.00000  1013.01331  1013.01331
    21      721.87231      228.62982    -8     6    -6   0.05065   0.01228   0.00230  18.98096   0.04655  89.11640       19264.00       27798.20     1.15822     1.25002   177.99590     0.17931     0.00000   753.89685   753.89685
    15      129.37251       39.63038    -3     5    -7  -0.18141   0.27505   0.01034  13.62168   0.05947  99.85386         798.00        2921.20     1.45486     1.86609     0.00000     0.10140     0.00000   475.06589   475.06589
    18      438.70206       20.96680    -6     6    -8   0.42577   0.31526   0.01967  17.14078   0.04649 102.15983       14591.00       28668.20     1.21959     1.70109     6.10496     0.21304     0.00000   129.73306   129.73306
    30     1012.74231      601.52667    -9     5    -3   0.03160  -0.15689   0.00426  21.60193   0.05069  68.96235         455.00        2134.20     1.29702     1.98348     2.93604     0.09943     0.00000   699.02032   699.02032
    16      753.60156      232.68832    -7     5    -5  -0.31645   0.17737   0.01500  16.22849   0.05456  88.87652        7051.00       17358.20     1.09382     1.94553     0.08937     0.30006     0.00000   464.01675   464.01675
    22      145.61665      355.22311    -3     7    -7  -0.00134   0.00105   0.00006  18.14047   0.05245  81.32592        6326.00       16138.20     1.23940     1.88979   179.31596     0.16899     0.00000   145.94106   145.94106
    23      364.76346      259.68878    -5     7    -7  -0.03183  -0.05202   0.00222  18.42595   0.04893  86.88649        8257.00       13977.20     1.19948     1.32939     0.96688     0.17170     0.00000   365.08246   365.08246
    29      784.11517       52.53238   -10     6    -8  -0.00983  -0.13205   0.00406  21.07645   0.03835 100.15466        4626.00        8095.20     1.11678     1.32674   178.87694     0.14439     0.00000   261.99863   261.99863
    32      300.68100       92.98424    -6     8   -10  -0.05650   0.05922   0.00294  21.53551   0.03834  97.33965         571.00        2293.20     1.31068     1.88343    10.81777     0.10519     0.00000   971.99945   971.99945
    25      919.94690      273.22327    -9     5    -5   0.12526  -0.06460   0.00539  19.04891   0.04744  86.63505         752.00        2345.20     1.13342     1.78010   177.10989     0.09553     0.00000   301.01102   301.01102
    26       27.58810      162.49307    -3     7    -9   0.35736   0.04554   0.01207  18.66593   0.04597  92.52486        2824.00       10003.20     1.68189     1.90015    16.91666     0.17806     0.00000   920.16492   920.16492
    24      822.88818       31.32362    -9     5    -7   0.17786  -0.14517   0.00776  18.39866   0.04356 101.33366         813.00        3642.20     1.67177     1.87085    83.10595     0.13318     0.00000   784.06976   784.06976
    27      261.68066       78.66663    -5     7    -9  -0.05904  -0.01440   0.00232  18.85111   0.04354  98.10457        3752.00        8905.20     1.36801     1.61226   166.55005     0.16827     0.00000    27.93703    27.93703
    34      698.75568      226.31860    -9     7    -7   0.05348  -0.09526   0.00388  21.75034   0.04057  89.25151         522.00        2764.24     1.23885     2.33164     5.66252     0.52932     0.00000   615.84363   615.84363
    28      454.66699       47.76878    -7     7    -9   0.00307   0.02501   0.00079  19.89085   0.04053 100.53985        3315.00       10057.20     1.51985     1.91405    69.68604     0.19267     0.00000   823.13660   823.13660
    33      971.58417       85.51216   -11     5    -7  -0.34128  -0.33176   0.01562  21.19097   0.03885  97.71271         602.00        2301.57     1.33434     1.68748    15.61367     0.10778     0.00000   971.97083   971.97083
latticeparameters=   0.54329   0.54480   0.54093  89.94901  90.19174  90.25837
dpsx, dpsy: 179.00000 168.38699
dd, xcent, ycent:      150.57201      540.60303      212.87601
pitch,yaw,roll:  -0.22645   0.61642   0.00000
dev1, dev2, pixdev:   0.01221   0.01200   0.24650
deviatoric strain in crystal reference u1 u2 u3 (*10^3)
   0.53199  -2.26214  -1.66685
  -2.26214   3.30000   0.43573
  -1.66685   0.43573  -3.81910
deviatoric strain in sample reference X Y Z (*10^3)
  -0.23240  -0.91737   0.52255
  -0.91737   4.57098   0.14301
   0.52255   0.14301  -4.32569
deviatoric principal strains (*10^3):   4.74045  -0.32874  -4.39882
deviatoric strain principal axes in sample reference:
  -0.18089   0.98349   0.00509
   0.97478   0.17860   0.13383
  -0.13071  -0.02917   0.99099
deviatoric stress in crystal reference u1 u2 u3 (MPa)
       54.92733     -359.72574     -265.06284
     -359.72574      336.43344       69.28913
     -265.06284       69.28913     -387.57849
deviatoric stress in sample reference X Y Z (MPa)
      -35.93503     -204.79181      -24.05917
     -204.79181      561.89240       17.70750
      -24.05917       17.70750     -522.17505
deviatoric principal stresses (MPa):      625.82031      -98.61776     -523.42029
deviatoric stress principal axes in sample reference:
       -0.29626        0.95488        0.02094
       -0.95399       -0.29691        0.04178
        0.04611       -0.00760        0.99891
total strain in sample reference X Y Z (*10^3)
   1.54661  -0.91737   0.52255
  -0.91737   6.34999   0.14301
   0.52255   0.14301  -2.54668
total principal strains (*10^3):   6.51946   1.45027  -2.61981
total strain principal axes in sample reference:
  -0.18089   0.98349   0.00509
   0.97478   0.17860   0.13383
  -0.13071  -0.02917   0.99099
total stress in crystal reference u1 u2 u3 (MPa)
      577.10242     -359.72574     -265.06284
     -359.72574      858.60852       69.28913
     -265.06284       69.28913      134.59657
total stress in sample reference X Y Z (MPa)
      486.24005     -204.79181      -24.05917
     -204.79181     1084.06750       17.70750
      -24.05917       17.70750        0.00000
total principal stresses (MPa):     1147.99536      423.55728       -1.24521
total stress principal axes in sample reference:
       -0.29626        0.95488        0.02094
       -0.95399       -0.29691        0.04178
        0.04611       -0.00760        0.99891
dilatational strain (*10^-3):        1.77901
hydrostatic stress (MPa):      523.43585
Von Mises stress (MPa):     1006.48438
equivalent strain (*10^-3):        5.28706
equivalent stress (MPa):     1006.48438
maximum resolved shear stress:       21.65222
coordinates of a, b, c in X, Y, Z
   0.44451  -0.20240   0.23859
   0.19245   0.50583   0.06496
  -0.24577   0.03224   0.48112
coordinates of a*, b*, c* in X, Y, Z
   1.50615  -0.67768   0.81482
   0.65592   1.70111   0.22107
  -0.83548   0.10639   1.64679
