\\vmware-host\Shared Folders\Desktop\SiHyperlaueFinal_shielded_results\results_00127.STR
Number of grains:       1
Grain no:       1   Grainlist file index:       1    Number of peaks:      32
no   x(exp)  y(exp)  h  k  l xdev  ydev  angdev  energy  dspace  twotheta  intens   integr  xwidth   ywidth  tilt  rfactor   pearson  xcentroid  ycentroid
     3      392.64215      872.03699    -2     4    -2  -0.29543  -0.12725   0.01725  12.44990   0.11103  53.29004       23349.00       36841.04     1.24519     1.24866   146.15398     0.18781     0.00000   992.03906   992.03906
     6      746.39520      951.32245    -3     3    -1  -0.39405   0.48564   0.02424  11.59465   0.12489  50.69674       31968.00       84723.03     1.71278     1.85626    67.68580     0.24579     0.00000   925.35120   925.35120
    13      991.68829      299.61575    -4     2    -2   0.13988  -0.09915   0.00609   8.25865   0.11083  85.26117       12098.00       20683.03     1.19083     1.44003     3.14142     0.17251     0.00000   258.94055   258.94055
     4      546.08057      225.18144    -3     3    -3   0.08240   0.16652   0.00668   8.45345   0.10445  89.18937       36130.00      133104.03     1.83221     1.88424    18.88453     0.22392     0.00000   546.38379   546.38379
     7     1026.45764      909.50348    -5     3    -1  -0.25847   0.25003   0.01301  14.49367   0.09196  55.43483       28630.00      140177.03     1.91092     2.95723   175.70164     0.31120     0.00000   426.89948   426.89948
     5      925.01990      683.00348    -6     4    -2   0.09359   0.03484   0.00437  16.08340   0.07267  64.06273       30051.00       74942.03     1.59227     1.87209   143.79794     0.20247     0.00000  1026.77905  1026.77905
     2      426.65924      666.13708    -3     5    -3   0.45385  -0.10677   0.02500  14.36188   0.08291  62.74906       26039.00       79451.03     1.67494     2.02709   178.52840     0.20883     0.00000   746.69427   746.69427
    12      648.66760      500.22037    -6     6    -4   0.17843   0.04003   0.00935  18.19294   0.05794  72.04354       30238.00       49979.04     1.20772     1.49329   179.27380     0.21051     0.00000   282.89471   282.89471
     8      668.66693      570.49921    -5     5    -3   0.12274  -0.01673   0.00653  15.64315   0.07079  68.09117       18869.00       39749.04     1.08953     1.87006   179.97523     0.19029     0.00000   649.00037   649.00037
    14      868.13104      257.28299    -5     3    -3   0.07189   0.19078   0.00654  10.82884   0.08280  87.48850       11478.00       26880.03     1.50436     1.67881    67.43336     0.21916     0.00000   859.20105   859.20105
     9      331.60019      270.39243    -4     6    -6  -0.48372  -0.02801   0.02187  15.68427   0.05784  86.20885       43517.00       64874.04     1.08481     1.53023   179.98975     0.19021     0.00000   669.00226   669.00226
    10      282.61804      288.50192    -3     5    -5  -0.40024  -0.02246   0.01776  12.97819   0.07064  85.09842       12423.00       36577.04     1.75263     1.92128   117.63600     0.19853     0.00000   868.34656   868.34656
    19      258.62582      619.59747    -3     7    -5  -0.01334  -0.34217   0.00901  19.09418   0.05963  65.97795       11990.00       24308.03     1.17360     1.71618   177.59750     0.21638     0.00000   439.07645   439.07645
    17      858.90460      567.49976    -7     5    -3   0.15812  -0.26849   0.01072  18.25006   0.05968  69.39246        7959.00       16459.03     1.23488     1.56172   179.21584     0.20841     0.00000   722.16162   722.16162
    31      475.04825      454.83386    -6     8    -6   0.01224   0.09193   0.00287  21.97109   0.04659  74.55416        2530.00        5562.03     1.07662     1.50806     0.80147     0.15246     0.00000   455.00995   455.00995
    20      463.67084      498.15417    -5     7    -5   0.37729  -0.08644   0.01991  19.31750   0.05461  71.97996        1081.00        3057.03     1.36427     1.61308   168.54260     0.10180     0.00000  1013.00928  1013.00928
    22      721.87231      228.63445    -8     6    -6   0.04661   0.01878   0.00217  18.98112   0.04655  89.11568        6556.00       16470.03     1.23991     1.88702   179.17818     0.16924     0.00000   145.92966   145.92966
    15      129.38870       39.63006    -3     5    -7  -0.19812   0.26744   0.01056  13.62157   0.05947  99.85431         824.00        2999.03     1.54452     1.81928   172.79843     0.10693     0.00000   475.04678   475.04678
    18      438.70135       20.95720    -6     6    -8   0.42784   0.32710   0.01992  17.14076   0.04649 102.15969       15277.00       29361.03     1.21514     1.67723     6.09202     0.21451     0.00000   129.73512   129.73512
    30     1012.72528      601.52563    -9     5    -3   0.03357  -0.13949   0.00389  21.60233   0.05069  68.96138         471.00        2034.03     1.29031     2.04333     7.44970     0.09339     0.00000   699.02594   699.02594
    16      753.59937      232.68893    -7     5    -5  -0.31881   0.18878   0.01523  16.22864   0.05456  88.87575        7205.00       17715.03     1.09172     1.93507     0.01468     0.29875     0.00000   464.00394   464.00394
    21      145.61655      355.23404    -3     7    -7  -0.00413  -0.01695   0.00053  18.14039   0.05245  81.32634       20041.00       28989.03     1.15500     1.25533   179.08958     0.18335     0.00000   753.89752   753.89752
    23      364.76563      259.68674    -5     7    -7  -0.03553  -0.04984   0.00229  18.42597   0.04893  86.88648        8682.00       14669.03     1.19266     1.33176     0.50678     0.17802     0.00000   365.12189   365.12189
    29      784.11481       52.55346   -10     6    -8  -0.01117  -0.13986   0.00430  21.07655   0.03835 100.15385        4726.00        8275.03     1.11831     1.33878   177.47324     0.14489     0.00000   262.01987   262.01987
    32      300.68115       92.99032    -6     8   -10  -0.05637   0.05110   0.00279  21.53544   0.03834  97.33978         624.00        2365.03     1.29808     1.74405    12.46091     0.10956     0.00000   971.98511   971.98511
    24      919.93298      273.25293    -9     5    -5   0.13118  -0.07778   0.00576  19.04913   0.04744  86.63405         831.00        3485.03     1.52268     1.83443   162.45209     0.13213     0.00000   784.07001   784.07001
    26       27.57543      162.44214    -3     7    -9   0.36707   0.08594   0.01254  18.66577   0.04597  92.52544        3061.00       10280.03     1.66402     1.87881    17.48652     0.18046     0.00000   920.14862   920.14862
    25      822.89056       31.35065    -9     5    -7   0.17372  -0.15772   0.00784  18.39874   0.04356 101.33280         757.00        2435.03     1.12506     1.79969   175.85217     0.10336     0.00000   301.00391   301.00391
    27      261.67944       78.66870    -5     7    -9  -0.05754  -0.01984   0.00230  18.85103   0.04354  98.10477        3614.00        8760.03     1.39129     1.69157   169.71309     0.15874     0.00000    27.93571    27.93571
    35      698.74921      226.34334    -9     7    -7   0.05625  -0.10953   0.00432  21.75051   0.04057  89.25083           0.00           0.00     0.00000     0.00000     0.00000     0.00000     0.00000     0.00000     0.00000
    28      454.66550       47.75121    -7     7    -9   0.00550   0.04543   0.00144  19.89083   0.04053 100.53967        3295.00       10026.03     1.50334     1.91614    73.57923     0.19406     0.00000   823.12445   823.12445
    33      971.58087       85.53332   -11     5    -7  -0.34315  -0.33410   0.01571  21.19112   0.03885  97.71164         615.00        2440.83     1.37278     1.71477    15.85652     0.11131     0.00000   971.99982   971.99982
latticeparameters=   0.54329   0.54479   0.54094  89.94909  90.19116  90.25731
dpsx, dpsy: 179.00000 168.38699
dd, xcent, ycent:      150.57201      540.60303      212.87601
pitch,yaw,roll:  -0.22645   0.61642   0.00000
dev1, dev2, pixdev:   0.01227   0.01207   0.24886
deviatoric strain in crystal reference u1 u2 u3 (*10^3)
   0.53140  -2.25288  -1.66181
  -2.25288   3.28777   0.43510
  -1.66181   0.43510  -3.80637
deviatoric strain in sample reference X Y Z (*10^3)
  -0.22988  -0.91438   0.52155
  -0.91438   4.55380   0.14350
   0.52155   0.14350  -4.31112
deviatoric principal strains (*10^3):   4.72286  -0.32583  -4.38423
deviatoric strain principal axes in sample reference:
  -0.18102   0.98347   0.00517
   0.97473   0.17871   0.13400
  -0.13086  -0.02930   0.99097
deviatoric stress in crystal reference u1 u2 u3 (MPa)
       54.86159     -358.25314     -264.26154
     -358.25314      335.18399       69.18968
     -264.26154       69.18968     -386.28949
deviatoric stress in sample reference X Y Z (MPa)
      -35.58067     -204.07996      -23.88039
     -204.07996      559.75995       17.82963
      -23.88039       17.82963     -520.42316
deviatoric principal stresses (MPa):      623.50781      -98.09416     -521.65753
deviatoric stress principal axes in sample reference:
       -0.29642        0.95483        0.02107
       -0.95396       -0.29706        0.04140
        0.04579       -0.00783        0.99892
total strain in sample reference X Y Z (*10^3)
   1.54316  -0.91438   0.52155
  -0.91438   6.32684   0.14350
   0.52155   0.14350  -2.53808
total principal strains (*10^3):   6.49590   1.44721  -2.61119
total strain principal axes in sample reference:
  -0.18102   0.98347   0.00517
   0.97473   0.17871   0.13400
  -0.13086  -0.02930   0.99097
total stress in crystal reference u1 u2 u3 (MPa)
      575.28479     -358.25314     -264.26154
     -358.25314      855.60718       69.18968
     -264.26154       69.18968      134.13370
total stress in sample reference X Y Z (MPa)
      484.84250     -204.07996      -23.88039
     -204.07996     1080.18311       17.82963
      -23.88039       17.82963        0.00000
total principal stresses (MPa):     1143.93103      422.32904       -1.23437
total stress principal axes in sample reference:
       -0.29642        0.95483        0.02107
       -0.95396       -0.29706        0.04140
        0.04579       -0.00783        0.99892
dilatational strain (*10^-3):        1.77304
hydrostatic stress (MPa):      521.67523
Von Mises stress (MPa):     1002.87561
equivalent strain (*10^-3):        5.26833
equivalent stress (MPa):     1002.87561
maximum resolved shear stress:       21.76735
coordinates of a, b, c in X, Y, Z
   0.44451  -0.20240   0.23859
   0.19246   0.50582   0.06495
  -0.24577   0.03225   0.48113
coordinates of a*, b*, c* in X, Y, Z
   1.50615  -0.67771   0.81480
   0.65595   1.70113   0.22104
  -0.83545   0.10643   1.64677
