\\vmware-host\Shared Folders\Desktop\SiHyperlaueFinal_shielded_results\results_00046.STR
Number of grains:       1
Grain no:       1   Grainlist file index:       1    Number of peaks:      33
no   x(exp)  y(exp)  h  k  l xdev  ydev  angdev  energy  dspace  twotheta  intens   integr  xwidth   ywidth  tilt  rfactor   pearson  xcentroid  ycentroid
     2      392.62457      871.98523    -2     4    -2  -0.32776  -0.11546   0.01903  12.44810   0.11105  53.29193       59614.00      206185.05     1.79365     2.07017   178.19443     0.21404     0.00000   746.62024   746.62024
     5      746.30548      951.28894    -3     3    -1  -0.33956   0.52306   0.02179  11.59388   0.12490  50.69632       48794.00      127563.05     1.63683     1.92423    97.00983     0.19421     0.00000  1026.74268  1026.74268
    13      991.67017      299.61893    -4     2    -2   0.12165  -0.04101   0.00479   8.25870   0.11084  85.25753       49141.00       85344.05     1.23108     1.56673   179.09901     0.22830     0.00000   282.87430   282.87430
     3      546.03241      225.15009    -3     3    -3   0.11973   0.19141   0.00840   8.45285   0.10446  89.18978       38296.00       58445.05     1.23989     1.24147   129.87413     0.18551     0.00000   992.01337   992.01337
     6     1026.42236      909.52435    -5     3    -1  -0.27630   0.26862   0.01393  14.49363   0.09197  55.43259       46326.00      123232.05     1.59408     1.96611   119.77345     0.24059     0.00000   925.33868   925.33868
     7      924.97943      683.05090    -6     4    -2   0.09532   0.02041   0.00443  16.08313   0.07268  64.06074        1032.00        2251.04     1.14902     1.44859     0.38607     0.07783     0.00000    62.01909    62.01909
    36       61.81732      407.69305    -1     3    -3   0.23531   0.28860   0.01261   7.85990   0.12446  78.64945           0.00           0.00     0.00000     0.00000     0.00000     0.00000     0.00000     0.00000     0.00000
     4      426.61600      666.13068    -3     5    -3   0.45737  -0.13509   0.02525  14.36005   0.08292  62.75095       79732.00      263924.03     1.79475     1.87423     4.83130     0.23089     0.00000   546.37476   546.37476
    14      648.66718      500.23981    -6     6    -4   0.15594   0.01886   0.00813  18.19166   0.05795  72.04357       14843.00       26179.04     1.22422     1.45243     5.00899     0.19150     0.00000   258.91068   258.91068
     8      668.66675      570.51428    -5     5    -3   0.09756  -0.03271   0.00527  15.64206   0.07079  68.09112       48559.00      220974.05     1.89985     2.75530   175.22395     0.30585     0.00000   426.82480   426.82480
     9      868.08038      257.31992    -5     3    -3   0.10107   0.19840   0.00735  10.82870   0.08280  87.48574       25148.00       51360.05     1.08931     1.85838   179.98073     0.19571     0.00000   649.00220   649.00220
    11      331.58752      270.36719    -4     6    -6  -0.49727  -0.04087   0.02250  15.68258   0.05785  86.21127       32631.00       88064.05     1.78152     1.83133    17.48835     0.22993     0.00000   868.38373   868.38373
    10      282.60910      288.46481    -3     5    -5  -0.42352  -0.02951   0.01881  12.97670   0.07064  85.10120       63625.00       93757.05     1.08436     1.50924   179.95877     0.19365     0.00000   668.99969   668.99969
    19      258.61276      619.59222    -3     7    -5  -0.05586  -0.38543   0.01066  19.09137   0.05964  65.98084       23951.00       47097.05     1.24561     1.68492     7.38044     0.24103     0.00000   129.69292   129.69292
    17      858.85968      567.53040    -7     5    -3   0.17208  -0.27158   0.01128  18.24957   0.05968  69.39075        8902.00       22099.04     1.08491     1.94638   179.92879     0.30394     0.00000   464.00690   464.00690
    31      474.99402      454.84476    -6     8    -6   0.03956   0.05625   0.00270  21.96884   0.04659  74.55568         554.00        2329.04     1.28773     1.93838     7.55232     0.10603     0.00000   699.03656   699.03656
    20      463.66919      498.16171    -5     7    -5   0.34922  -0.12124   0.01859  19.31541   0.05462  71.98160       15396.00       31155.04     1.17169     1.73535   177.77174     0.22016     0.00000   439.07788   439.07788
    22      721.84436      228.64078    -8     6    -6   0.06294   0.03441   0.00302  18.98040   0.04655  89.11427       26091.00       38987.05     1.17443     1.28565   178.76266     0.20196     0.00000   753.86517   753.86517
    15      129.38252       39.61819    -3     5    -7  -0.21796   0.22012   0.01009  13.62014   0.05948  99.85757       16078.00       34685.05     1.45788     1.59626    28.11724     0.22681     0.00000   859.20135   859.20135
    18      438.69962       20.97334    -6     6    -8   0.43056   0.29783   0.01958  17.13955   0.04649 102.16051       10367.00       20370.04     1.23196     1.50984   177.47542     0.21800     0.00000   722.15039   722.15039
    30     1012.69971      601.58850    -9     5    -3   0.01274  -0.15541   0.00398  21.60236   0.05069  68.95858        5742.00        9932.04     1.12041     1.34150   178.89301     0.15382     0.00000   262.05029   262.05029
    16      753.58746      232.69783    -7     5    -5  -0.31993   0.20684   0.01551  16.22811   0.05456  88.87403        1011.00        3337.04     1.55644     1.75717   171.21895     0.10927     0.00000   475.06656   475.06656
    21      145.60553      355.19409    -3     7    -7  -0.04703  -0.03456   0.00223  18.13797   0.05245  81.32986        1344.00        3544.04     1.31281     1.52045   171.04906     0.11096     0.00000  1012.99738  1012.99738
    23      364.75174      259.68637    -5     7    -7  -0.04427  -0.08311   0.00336  18.42409   0.04893  86.88863        7996.00       21047.04     1.25826     1.90233   179.15947     0.18425     0.00000   145.91251   145.91251
    29      784.12518       52.56171   -10     6    -8  -0.02696  -0.10240   0.00334  21.07615   0.03835 100.15108        4500.00       12720.04     1.45619     1.83991    52.76823     0.22303     0.00000   823.14056   823.14056
    32      300.68326       93.00453    -6     8   -10  -0.07249  -0.00054   0.00291  21.53342   0.03834  97.34205        3060.00        6383.04     1.08269     1.48692   179.24664     0.15745     0.00000   454.99762   454.99762
    25      919.90491      273.32227    -9     5    -5   0.13226  -0.09521   0.00603  19.04903   0.04744  86.63089         927.00        4101.04     1.52159     1.81205   170.47481     0.14788     0.00000   784.08643   784.08643
    26       27.57313      162.41562    -3     7    -9   0.31613   0.04207   0.01068  18.66349   0.04597  92.52930         901.00        2707.04     1.12395     1.82466   176.76012     0.10433     0.00000   301.02139   301.02139
    24      822.86090       31.39383    -9     5    -7   0.19609  -0.14600   0.00835  18.39851   0.04356 101.32954       10953.00       17983.04     1.19643     1.29934     0.52757     0.18420     0.00000   365.09277   365.09277
    27      261.68118       78.65931    -5     7    -9  -0.07532  -0.05286   0.00330  18.84920   0.04354  98.10730        4097.00       12491.04     1.61621     1.82816    12.37334     0.19588     0.00000   920.14581   920.14581
    35      698.73840      226.36070    -9     7    -7   0.05623  -0.10866   0.00430  21.74959   0.04058  89.24965           0.00           0.00     0.00000     0.00000     0.00000     0.00000     0.00000     0.00000     0.00000
    28      454.66531       47.75454    -7     7    -9   0.00501   0.03005   0.00096  19.88944   0.04053 100.54042        4375.00       10935.04     1.39381     1.74008   168.37471     0.17917     0.00000    27.90114    27.90114
    33      971.58264       85.59821   -11     5    -7  -0.37128  -0.32219   0.01629  21.19126   0.03885  97.70729         694.00        2663.04     1.32401     1.69251    16.24954     0.12131     0.00000   971.95734   971.95734
latticeparameters=   0.54325   0.54483   0.54093  89.94913  90.19298  90.25771
dpsx, dpsy: 179.00000 168.38699
dd, xcent, ycent:      150.57201      540.60303      212.87601
pitch,yaw,roll:  -0.22645   0.61642   0.00000
dev1, dev2, pixdev:   0.01233   0.01212   0.25602
deviatoric strain in crystal reference u1 u2 u3 (*10^3)
   0.45656  -2.25650  -1.67762
  -2.25650   3.36745   0.43466
  -1.67762   0.43466  -3.81096
deviatoric strain in sample reference X Y Z (*10^3)
  -0.26118  -0.87004   0.49034
  -0.87004   4.61510   0.16803
   0.49034   0.16803  -4.34088
deviatoric principal strains (*10^3):   4.76643  -0.34621  -4.40717
deviatoric strain principal axes in sample reference:
  -0.16965   0.98546   0.00905
   0.97771   0.16715   0.12704
  -0.12368  -0.03040   0.99186
deviatoric stress in crystal reference u1 u2 u3 (MPa)
       47.26580     -358.82819     -266.77509
     -358.82819      343.30331       69.11993
     -266.77509       69.11993     -386.74115
deviatoric stress in sample reference X Y Z (MPa)
      -38.22645     -199.86845      -27.60222
     -199.86845      566.21582       20.52909
      -27.60222       20.52909     -524.16144
deviatoric principal stresses (MPa):      626.98993      -97.35391     -525.80804
deviatoric stress principal axes in sample reference:
       -0.28858        0.95716        0.02399
       -0.95600       -0.28943        0.04790
        0.05279       -0.00911        0.99856
total strain in sample reference X Y Z (*10^3)
   1.52460  -0.87004   0.49034
  -0.87004   6.40088   0.16803
   0.49034   0.16803  -2.55510
total principal strains (*10^3):   6.55220   1.43956  -2.62139
total strain principal axes in sample reference:
  -0.16965   0.98546   0.00905
   0.97771   0.16715   0.12704
  -0.12368  -0.03040   0.99186
total stress in crystal reference u1 u2 u3 (MPa)
      571.42725     -358.82819     -266.77509
     -358.82819      867.46472       69.11993
     -266.77509       69.11993      137.42027
total stress in sample reference X Y Z (MPa)
      485.93497     -199.86845      -27.60222
     -199.86845     1090.37732       20.52909
      -27.60222       20.52909        0.00000
total principal stresses (MPa):     1151.15137      426.80750       -1.64663
total stress principal axes in sample reference:
       -0.28858        0.95716        0.02399
       -0.95600       -0.28943        0.04790
        0.05279       -0.00911        0.99856
dilatational strain (*10^-3):        1.78578
hydrostatic stress (MPa):      525.43744
Von Mises stress (MPa):     1009.25470
equivalent strain (*10^-3):        5.30797
equivalent stress (MPa):     1009.25470
maximum resolved shear stress:       16.36828
coordinates of a, b, c in X, Y, Z
   0.44443  -0.20244   0.23852
   0.19253   0.50579   0.06497
  -0.24573   0.03226   0.48109
coordinates of a*, b*, c* in X, Y, Z
   1.50608  -0.67792   0.81475
   0.65607   1.70077   0.22106
  -0.83530   0.10644   1.64670
