\\vmware-host\Shared Folders\Desktop\SiHyperlaueFinal_shielded_results\results_00072.STR
Number of grains:       1
Grain no:       1   Grainlist file index:       1    Number of peaks:      33
no   x(exp)  y(exp)  h  k  l xdev  ydev  angdev  energy  dspace  twotheta  intens   integr  xwidth   ywidth  tilt  rfactor   pearson  xcentroid  ycentroid
     2      392.63007      871.97131    -2     4    -2  -0.32122  -0.10875   0.01863  12.44763   0.11105  53.29218       43007.00      149364.95     1.76569     2.07201     0.00000     0.20848     0.00000   746.64520   746.64520
     5      746.33270      951.25647    -3     3    -1  -0.34974   0.52939   0.02236  11.59337   0.12490  50.69745       41946.00      107816.95     1.72909     1.78558   132.17371     0.20882     0.00000  1026.76587  1026.76587
    13      991.67780      299.62112    -4     2    -2   0.11475  -0.06922   0.00483   8.25859   0.11084  85.25904       39205.00       68166.95     1.22711     1.57051   179.17973     0.22305     0.00000   282.88120   282.88120
     3      546.04681      225.14311    -3     3    -3   0.11055   0.18794   0.00804   8.45273   0.10446  89.19047       31093.00       47745.96     1.23230     1.24119   170.84915     0.18483     0.00000   992.02441   992.02441
     7     1026.44873      909.49823    -5     3    -1  -0.28667   0.25323   0.01422  14.49304   0.09197  55.43441         460.00        1560.96     1.15967     1.58255   179.22926     0.07627     0.00000    62.00635    62.00635
     6      924.96930      683.00317    -6     4    -2   0.11813   0.03713   0.00550  16.08260   0.07268  64.06237       40973.00      108812.95     1.71652     1.78036    60.97830     0.25504     0.00000   925.34833   925.34833
    36       61.84676      407.69589    -1     3    -3   0.21254   0.28780   0.01191   7.85974   0.12446  78.64930           0.00           0.00     0.00000     0.00000     0.00000     0.00000     0.00000     0.00000     0.00000
     4      426.62827      666.11646    -3     5    -3   0.45611  -0.13161   0.02517  14.35955   0.08292  62.75148       58337.00      195753.95     1.80802     1.87305    10.19267     0.22911     0.00000   546.37817   546.37817
    14      648.66730      500.22110    -6     6    -4   0.16615   0.01999   0.00867  18.19116   0.05795  72.04463       13563.00       23975.96     1.21809     1.45599     4.58599     0.18770     0.00000   258.91910   258.91910
     8      668.66687      570.49835    -5     5    -3   0.10898  -0.03585   0.00588  15.64157   0.07079  68.09223       39674.00      188085.95     1.90423     2.82206   175.46594     0.30521     0.00000   426.84634   426.84634
    11      868.10620      257.28500    -5     3    -3   0.07751   0.21285   0.00724  10.82857   0.08280  87.48699       20811.00       59806.96     1.81295     1.84655    84.31251     0.22302     0.00000   868.37323   868.37323
    10      331.59195      270.35461    -4     6    -6  -0.49539  -0.03375   0.02240  15.68230   0.05785  86.21161       54159.00       81090.95     1.08468     1.54091     0.03728     0.19254     0.00000   669.00494   669.00494
     9      282.61057      288.46353    -3     5    -5  -0.41853  -0.03252   0.01860  12.97645   0.07065  85.10146       22541.00       47217.96     1.08995     1.86659   179.96341     0.19541     0.00000   649.01019   649.01019
    19      258.61508      619.59424    -3     7    -5  -0.04945  -0.39171   0.01071  19.09079   0.05964  65.98101       19785.00       38957.96     1.24345     1.68160     7.36003     0.23515     0.00000   129.71120   129.71120
    17      858.88287      567.51666    -7     5    -3   0.15972  -0.28387   0.01107  18.24906   0.05968  69.39223        8132.00       20224.96     1.08967     1.94891     0.04102     0.29993     0.00000   464.01874   464.01874
    31      475.03290      454.82178    -6     8    -6   0.00977   0.06751   0.00212  21.96825   0.04659  74.55638         486.00        2198.96     1.21982     2.01669     5.26637     0.10410     0.00000   699.02118   699.02118
    20      463.67032      498.16629    -5     7    -5   0.35767  -0.13753   0.01911  19.31485   0.05462  71.98228       13809.00       27965.96     1.16949     1.72107   177.76440     0.22016     0.00000   439.08456   439.08456
    21      721.85822      228.63956    -8     6    -6   0.05288   0.02035   0.00245  18.98016   0.04655  89.11525        1236.00        3328.96     1.33693     1.55749   171.56667     0.10498     0.00000  1013.01056  1013.01056
    15      129.38589       39.61843    -3     5    -7  -0.21592   0.22479   0.01013  13.62004   0.05948  99.85731       13988.00       31242.96     1.48177     1.63376    71.08144     0.22114     0.00000   859.20483   859.20483
    18      438.70016       20.96156    -6     6    -8   0.43189   0.30684   0.01976  17.13946   0.04649 102.16068        9429.00       18856.96     1.23315     1.54031   177.75182     0.21212     0.00000   722.16864   722.16864
    30     1012.69464      601.56433    -9     5    -3   0.02733  -0.16477   0.00438  21.60177   0.05069  68.96035        5361.00        9430.96     1.12271     1.33499   176.58057     0.15713     0.00000   262.02612   262.02612
    16      753.58923      232.69283    -7     5    -5  -0.31820   0.19556   0.01529  16.22791   0.05456  88.87507         927.00        3187.96     1.48697     1.77789   179.14677     0.10922     0.00000   475.06873   475.06873
    22      145.61011      355.19562    -3     7    -7  -0.04493  -0.03674   0.00219  18.13759   0.05245  81.32988       23131.00       34328.96     1.16325     1.28143   178.92642     0.19613     0.00000   753.87164   753.87164
    23      364.75613      259.68646    -5     7    -7  -0.04247  -0.08943   0.00347  18.42377   0.04893  86.88903        7099.00       18796.96     1.25155     1.89799   179.49187     0.18123     0.00000   145.91550   145.91550
    29      784.13348       52.58395   -10     6    -8  -0.03821  -0.13726   0.00450  21.07608   0.03835 100.15186        3972.00       11450.96     1.48835     1.86822    63.13618     0.20308     0.00000   823.13342   823.13342
    32      300.68256       92.99333    -6     8   -10  -0.06750   0.00946   0.00273  21.53321   0.03834  97.34214        2736.00        5799.96     1.07702     1.47899     0.53557     0.15374     0.00000   454.99765   454.99765
    24      919.90448      273.28723    -9     5    -5   0.13434  -0.08281   0.00594  19.04880   0.04744  86.63225        9822.00       16405.96     1.20526     1.31084     2.73999     0.18003     0.00000   365.10764   365.10764
    26       27.57358      162.43822    -3     7    -9   0.32239   0.02464   0.01085  18.66326   0.04597  92.52903         864.00        2704.96     1.12837     1.80586   177.03287     0.10688     0.00000   301.01941   301.01941
    25      822.87311       31.36889    -9     5    -7   0.17914  -0.13417   0.00764  18.39848   0.04356 101.33033         921.00        4027.96     1.53988     1.83144   163.07661     0.14637     0.00000   784.09039   784.09039
    27      261.68192       78.66248    -5     7    -9  -0.07164  -0.05582   0.00322  18.84903   0.04354  98.10730        3707.00       11476.96     1.61713     1.84502    15.36800     0.18830     0.00000   920.14136   920.14136
    35      698.72235      226.28081    -9     7    -7   0.07629  -0.04334   0.00370  21.74932   0.04058  89.25059           0.00           0.00     0.00000     0.00000     0.00000     0.00000     0.00000     0.00000     0.00000
    28      454.66699       47.75672    -7     7    -9   0.00556   0.02393   0.00078  19.88931   0.04053 100.54068        4054.00       10074.96     1.39761     1.70441   168.14407     0.17353     0.00000    27.91373    27.91373
    33      971.54413       85.57138   -11     5    -7  -0.33991  -0.31495   0.01527  21.19119   0.03885  97.70844         653.00        2523.96     1.42524     1.68575     0.00000     0.10950     0.00000   971.97168   971.97168
latticeparameters=   0.54324   0.54485   0.54092  89.94928  90.19495  90.25783
dpsx, dpsy: 179.00000 168.38699
dd, xcent, ycent:      150.57201      540.60303      212.87601
pitch,yaw,roll:  -0.22645   0.61642   0.00000
dev1, dev2, pixdev:   0.01228   0.01209   0.25573
deviatoric strain in crystal reference u1 u2 u3 (*10^3)
   0.43783  -2.25770  -1.69473
  -2.25770   3.40551   0.43332
  -1.69473   0.43332  -3.83011
deviatoric strain in sample reference X Y Z (*10^3)
  -0.26038  -0.85523   0.48325
  -0.85523   4.64648   0.17835
   0.48325   0.17835  -4.37287
deviatoric principal strains (*10^3):   4.79227  -0.34163  -4.43741
deviatoric strain principal axes in sample reference:
  -0.16591   0.98609   0.01044
   0.97868   0.16335   0.12455
  -0.12111  -0.03088   0.99216
deviatoric stress in crystal reference u1 u2 u3 (MPa)
       45.37362     -359.01974     -269.49588
     -359.01974      347.18677       68.90581
     -269.49588       68.90581     -388.67563
deviatoric stress in sample reference X Y Z (MPa)
      -37.41943     -198.58481      -28.88325
     -198.58481      569.49866       21.79337
      -28.88325       21.79337     -528.19446
deviatoric principal stresses (MPa):      629.43481      -95.56089     -529.98914
deviatoric stress principal axes in sample reference:
       -0.28632        0.95780        0.02518
       -0.95658       -0.28725        0.04939
        0.05454       -0.00994        0.99846
total strain in sample reference X Y Z (*10^3)
   1.53914  -0.85523   0.48325
  -0.85523   6.44600   0.17835
   0.48325   0.17835  -2.57335
total principal strains (*10^3):   6.59178   1.45789  -2.63789
total strain principal axes in sample reference:
  -0.16591   0.98609   0.01044
   0.97868   0.16335   0.12455
  -0.12111  -0.03088   0.99216
total stress in crystal reference u1 u2 u3 (MPa)
      573.56805     -359.01974     -269.49588
     -359.01974      875.38123       68.90581
     -269.49588       68.90581      139.51884
total stress in sample reference X Y Z (MPa)
      490.77502     -198.58481      -28.88325
     -198.58481     1097.69312       21.79337
      -28.88325       21.79337        0.00000
total principal stresses (MPa):     1157.62927      432.63358       -1.79468
total stress principal axes in sample reference:
       -0.28632        0.95780        0.02518
       -0.95658       -0.28725        0.04939
        0.05454       -0.00994        0.99846
dilatational strain (*10^-3):        1.79952
hydrostatic stress (MPa):      529.48938
Von Mises stress (MPa):     1014.54688
equivalent strain (*10^-3):        5.33998
equivalent stress (MPa):     1014.54688
maximum resolved shear stress:       15.04341
coordinates of a, b, c in X, Y, Z
   0.44441  -0.20243   0.23851
   0.19252   0.50581   0.06498
  -0.24575   0.03225   0.48106
coordinates of a*, b*, c* in X, Y, Z
   1.50605  -0.67792   0.81480
   0.65600   1.70068   0.22111
  -0.83532   0.10638   1.64670
