\\vmware-host\Shared Folders\Desktop\SiHyperlaueFinal_shielded_results\results_00004.STR
Number of grains:       1
Grain no:       1   Grainlist file index:       1    Number of peaks:      33
no   x(exp)  y(exp)  h  k  l xdev  ydev  angdev  energy  dspace  twotheta  intens   integr  xwidth   ywidth  tilt  rfactor   pearson  xcentroid  ycentroid
     3      392.61496      871.97876    -2     4    -2  -0.33212  -0.10908   0.01925  12.44819   0.11104  53.29200       51487.00       75928.61     1.22280     1.23649   172.45219     0.17816     0.00000   991.98242   991.98242
     4      746.26276      951.28381    -3     3    -1  -0.31584   0.54283   0.02082  11.59411   0.12490  50.69561      108968.00      355045.59     1.77536     1.87439   179.93507     0.23340     0.00000   546.36993   546.36993
    13      991.65649      299.62427    -4     2    -2   0.11598  -0.01830   0.00445   8.25887   0.11084  85.25586       60466.00      105422.61     1.24050     1.56348   179.18443     0.23304     0.00000   282.86533   282.86533
     2      546.01331      225.15942    -3     3    -3   0.13178   0.19585   0.00889   8.45298   0.10446  89.18888       73581.00      258173.61     1.82704     2.05078   168.37077     0.21736     0.00000   746.59631   746.59631
     6     1026.40540      909.55853    -5     3    -1  -0.28542   0.25864   0.01421  14.49402   0.09197  55.43130       49580.00      135450.61     1.65795     1.90195   102.44105     0.25023     0.00000   925.32916   925.32916
     7      924.95880      683.09705    -6     4    -2   0.09465  -0.00417   0.00442  16.08351   0.07268  64.05948        2570.00        4445.61     1.14176     1.42784   179.58298     0.09481     0.00000    62.05302    62.05302
    29       61.79996      407.68390    -1     3    -3   0.24638   0.29181   0.01300   7.85993   0.12446  78.64980        4991.00       13345.61     1.46123     1.78523    56.56171     0.21875     0.00000   823.12524   823.12524
     5      426.60352      666.14386    -3     5    -3   0.45764  -0.14411   0.02529  14.36021   0.08292  62.75077       55082.00      144296.61     1.64353     1.88054   106.87094     0.19471     0.00000  1026.72961  1026.72961
    15      648.66718      500.27652    -6     6    -4   0.14281  -0.00396   0.00744  18.19199   0.05795  72.04271       18254.00       37384.61     1.42228     1.54526    68.56022     0.22579     0.00000   859.19183   859.19183
    10      668.66681      570.53119    -5     5    -3   0.08318  -0.03570   0.00454  15.64234   0.07079  68.09029       72495.00      105281.61     1.08413     1.47925   179.95303     0.19381     0.00000   669.00488   669.00488
     8      868.05341      257.37213    -5     3    -3   0.11323   0.17071   0.00700  10.82891   0.08280  87.48422       57971.00      253681.61     1.89528     2.67129   175.25833     0.30453     0.00000   426.80389   426.80389
    12      331.58301      270.36475    -4     6    -6  -0.49786  -0.03294   0.02251  15.68275   0.05785  86.21092       38006.00       80851.61     1.29915     1.73621   178.00417     0.25008     0.00000   331.83969   331.83969
     9      282.60526      288.46741    -3     5    -5  -0.42470  -0.02860   0.01886  12.97682   0.07064  85.10099       28200.00       55532.61     1.08942     1.83673   179.97501     0.19920     0.00000   649.00494   649.00494
    19      258.60812      619.59070    -3     7    -5  -0.06173  -0.38552   0.01077  19.09149   0.05964  65.98099       28901.00       56475.61     1.24253     1.68526     7.45897     0.24727     0.00000   129.68793   129.68793
    17      858.84094      567.55542    -7     5    -3   0.17240  -0.27634   0.01138  18.24997   0.05968  69.38952        9247.00       23628.61     1.08577     1.95351   179.99690     0.30068     0.00000   464.01498   464.01498
    31      474.96600      454.83362    -6     8    -6   0.05763   0.07571   0.00381  21.96914   0.04659  74.55518         588.00        2177.61     1.23495     1.87205     6.00302     0.10291     0.00000   699.00476   699.00476
    20      463.66873      498.18903    -5     7    -5   0.33923  -0.14111   0.01819  19.31567   0.05462  71.98117       16441.00       33843.61     1.17437     1.75781   177.79872     0.22251     0.00000   439.09497   439.09497
    22      721.82916      228.65109    -8     6    -6   0.06758   0.04400   0.00334  18.98074   0.04655  89.11299       29220.00       44274.61     1.18471     1.30298   177.04143     0.20983     0.00000   753.85907   753.85907
    14      129.38313       39.61841    -3     5    -7  -0.21611   0.22129   0.01006  13.62022   0.05948  99.85750       15555.00       27704.61     1.23606     1.46230     5.65998     0.19525     0.00000   258.89725   258.89725
    18      438.70081       20.99089    -6     6    -8   0.42860   0.29370   0.01945  17.13976   0.04649 102.15968       11546.00       21921.61     1.21272     1.47811   179.26991     0.21638     0.00000   722.14935   722.14935
    32     1012.67261      601.59290    -9     5    -3   0.01651  -0.13507   0.00351  21.60288   0.05069  68.95712        3103.00        6673.61     1.08413     1.50570     0.98937     0.16545     0.00000   454.98956   454.98956
    16      753.58105      232.70300    -7     5    -5  -0.32489   0.22260   0.01592  16.22841   0.05456  88.87269        1088.00        3631.61     1.53942     1.71870   169.87024     0.12015     0.00000   475.03339   475.03339
    21      145.60338      355.19724    -3     7    -7  -0.05037  -0.03997   0.00243  18.13807   0.05245  81.33001        1451.00        3577.61     1.30771     1.52864   173.30103     0.10234     0.00000  1012.99579  1012.99579
    23      364.74197      259.69125    -5     7    -7  -0.03974  -0.08115   0.00318  18.42430   0.04893  86.88819        8580.00       22604.61     1.26257     1.89726   178.91512     0.19055     0.00000   145.89255   145.89255
    30      784.13037       52.60658   -10     6    -8  -0.04106  -0.12145   0.00410  21.07650   0.03835 100.14953        6217.00       11086.61     1.11987     1.34760   178.71565     0.16994     0.00000   262.04205   262.04205
    33      300.68433       93.00191    -6     8   -10  -0.07424   0.00905   0.00300  21.53363   0.03834  97.34162         690.00        2686.61     1.40569     1.68386    23.38534     0.12195     0.00000   971.97070   971.97070
    25      919.92303      273.35403    -9     5    -5   0.09753  -0.10092   0.00495  19.04942   0.04744  86.62930        1031.00        4188.61     1.44946     1.81434   170.19746     0.14765     0.00000   784.12402   784.12402
    26       27.57538      162.42197    -3     7    -9   0.31354   0.03156   0.01057  18.66356   0.04597  92.52954         908.00        2729.61     1.15114     1.83278   177.04523     0.10218     0.00000   301.01801   301.01801
    24      822.85376       31.43014    -9     5    -7   0.19360  -0.15445   0.00840  18.39881   0.04356 101.32790       12013.00       19375.61     1.20258     1.27451     2.51040     0.18619     0.00000   365.10007   365.10007
    27      261.68079       78.66226    -5     7    -9  -0.07480  -0.05006   0.00324  18.84937   0.04354  98.10695        4494.00       13078.61     1.63442     1.79943    90.99241     0.19377     0.00000   920.16821   920.16821
    36      698.72015      226.36169    -9     7    -7   0.06448  -0.09052   0.00410  21.74997   0.04058  89.24841           0.00           0.00     0.00000     0.00000     0.00000     0.00000     0.00000     0.00000     0.00000
    28      454.66461       47.77223    -7     7    -9   0.00403   0.02584   0.00083  19.88968   0.04053 100.53958        4731.00       11812.61     1.39081     1.73415   169.90651     0.18476     0.00000    27.91944    27.91944
    34      971.53503       85.62153   -11     5    -7  -0.33917  -0.31330   0.01522  21.19164   0.03885  97.70548         522.00        2764.24     1.23885     2.33164     5.66252     0.52932     0.00000   615.84363   615.84363
latticeparameters=   0.54325   0.54483   0.54094  89.94830  90.19311  90.25728
dpsx, dpsy: 179.00000 168.38699
dd, xcent, ycent:      150.57201      540.60303      212.87601
pitch,yaw,roll:  -0.22645   0.61642   0.00000
dev1, dev2, pixdev:   0.01227   0.01203   0.25465
deviatoric strain in crystal reference u1 u2 u3 (*10^3)
   0.45560  -2.25280  -1.67878
  -2.25280   3.36394   0.44193
  -1.67878   0.44193  -3.80653
deviatoric strain in sample reference X Y Z (*10^3)
  -0.26070  -0.87177   0.49023
  -0.87177   4.61027   0.17583
   0.49023   0.17583  -4.33656
deviatoric principal strains (*10^3):   4.76248  -0.34608  -4.40338
deviatoric strain principal axes in sample reference:
  -0.17005   0.98539   0.00988
   0.97761   0.16743   0.12748
  -0.12396  -0.03134   0.99179
deviatoric stress in crystal reference u1 u2 u3 (MPa)
       47.16680     -358.23950     -266.95938
     -358.23950      342.94510       70.27581
     -266.95938       70.27581     -386.29248
deviatoric stress in sample reference X Y Z (MPa)
      -38.14811     -200.08836      -27.48673
     -200.08836      565.62830       21.77142
      -27.48673       21.77142     -523.66077
deviatoric principal stresses (MPa):      626.63678      -97.49688     -525.32050
deviatoric stress principal axes in sample reference:
       -0.28907        0.95698        0.02502
       -0.95589       -0.28996        0.04684
        0.05208       -0.01038        0.99859
total strain in sample reference X Y Z (*10^3)
   1.52337  -0.87177   0.49023
  -0.87177   6.39435   0.17583
   0.49023   0.17583  -2.55249
total principal strains (*10^3):   6.54655   1.43799  -2.61931
total strain principal axes in sample reference:
  -0.17005   0.98539   0.00988
   0.97761   0.16743   0.12748
  -0.12396  -0.03134   0.99179
total stress in crystal reference u1 u2 u3 (MPa)
      570.82758     -358.23950     -266.95938
     -358.23950      866.60583       70.27581
     -266.95938       70.27581      137.36829
total stress in sample reference X Y Z (MPa)
      485.51266     -200.08836      -27.48673
     -200.08836     1089.28906       21.77142
      -27.48673       21.77142        0.00000
total principal stresses (MPa):     1150.29761      426.16385       -1.65975
total stress principal axes in sample reference:
       -0.28907        0.95698        0.02502
       -0.95589       -0.28996        0.04684
        0.05208       -0.01038        0.99859
dilatational strain (*10^-3):        1.78407
hydrostatic stress (MPa):      524.93390
Von Mises stress (MPa):     1008.56543
equivalent strain (*10^-3):        5.30350
equivalent stress (MPa):     1008.56543
maximum resolved shear stress:       17.02021
coordinates of a, b, c in X, Y, Z
   0.44443  -0.20245   0.23851
   0.19254   0.50579   0.06497
  -0.24572   0.03227   0.48110
coordinates of a*, b*, c* in X, Y, Z
   1.50608  -0.67797   0.81471
   0.65612   1.70076   0.22103
  -0.83526   0.10644   1.64671
