\\vmware-host\Shared Folders\Desktop\SiHyperlaueFinal_shielded_results\results_00097.STR
Number of grains:       1
Grain no:       1   Grainlist file index:       1    Number of peaks:      32
no   x(exp)  y(exp)  h  k  l xdev  ydev  angdev  energy  dspace  twotheta  intens   integr  xwidth   ywidth  tilt  rfactor   pearson  xcentroid  ycentroid
     2      392.63708      871.97278    -2     4    -2  -0.30131  -0.10800   0.01750  12.44996   0.11103  53.29196       31509.00      102142.93     1.70052     2.04362   178.59335     0.21062     0.00000   746.67810   746.67810
     5      746.37946      951.26727    -3     3    -1  -0.38628   0.52298   0.02415  11.59471   0.12489  50.69736       34475.00       87106.93     1.59970     1.88557     0.00000     0.22440     0.00000  1026.77551  1026.77551
    14      991.68512      299.61993    -4     2    -2   0.14271  -0.09383   0.00611   8.25879   0.11083  85.26062       12577.00       29051.93     1.49237     1.66939    43.57704     0.22018     0.00000   859.20520   859.20520
     4      546.06445      225.14764    -3     3    -3   0.09141   0.19604   0.00771   8.45370   0.10445  89.18964       41563.00      143845.92     1.82150     1.87538    17.98141     0.22595     0.00000   546.37494   546.37494
     7     1026.48401      909.54022    -5     3    -1  -0.28448   0.22938   0.01392  14.49390   0.09196  55.43422       31760.00      154888.92     1.90437     2.88620   175.72905     0.30692     0.00000   426.87317   426.87317
     6      925.01154      683.01117    -6     4    -2   0.09905   0.03099   0.00461  16.08362   0.07267  64.06251       35487.00       93659.93     1.68575     1.87757   120.56398     0.23816     0.00000   925.35431   925.35431
     3      426.64047      666.10986    -3     5    -3   0.46250  -0.10751   0.02547  14.36212   0.08291  62.75053       25153.00       39139.93     1.23445     1.25138   172.48090     0.18320     0.00000   992.02722   992.02722
    12      648.66766      500.21732    -6     6    -4   0.17008   0.03271   0.00890  18.19327   0.05794  72.04412       31571.00       53722.93     1.21715     1.54688   179.41451     0.21275     0.00000   282.88779   282.88779
     8      668.66718      570.49152    -5     5    -3   0.11414  -0.02076   0.00609  15.64340   0.07078  68.09179       19923.00       42144.93     1.09052     1.87401     0.01740     0.18976     0.00000   649.01337   649.01337
    13      868.12695      257.27258    -5     3    -3   0.07251   0.20551   0.00695  10.82904   0.08279  87.48823       12608.00       22063.93     1.20525     1.45740     3.67553     0.18036     0.00000   258.92349   258.92349
     9      331.59531      270.35947    -4     6    -6  -0.48474  -0.00513   0.02188  15.68486   0.05784  86.20949       46448.00       69751.93     1.08447     1.54890     0.03596     0.19027     0.00000   669.00555   669.00555
    10      282.61456      288.47528    -3     5    -5  -0.40198  -0.00767   0.01782  12.97869   0.07063  85.09917       13588.00       40027.93     1.77393     1.90896   165.97231     0.20536     0.00000   868.35626   868.35626
    19      258.62033      619.59027    -3     7    -5  -0.01591  -0.36661   0.00967  19.09465   0.05963  65.97965       12270.00       24931.93     1.18019     1.71450   177.47107     0.21768     0.00000   439.07477   439.07477
    17      858.89301      567.50146    -7     5    -3   0.16515  -0.27052   0.01101  18.25032   0.05967  69.39245        8450.00       17294.93     1.23644     1.55671   177.97675     0.21027     0.00000   722.15588   722.15588
    31      475.02722      454.85611    -6     8    -6   0.02435   0.05475   0.00211  21.97165   0.04658  74.55507        2667.00        5693.93     1.08075     1.49898   179.49542     0.15016     0.00000   455.00351   455.00351
    20      463.67068      498.15485    -5     7    -5   0.36825  -0.10441   0.01951  19.31796   0.05461  71.98099        1168.00        3409.93     1.35461     1.65941   171.77644     0.10948     0.00000  1013.00244  1013.00244
    22      721.86481      228.63556    -8     6    -6   0.04818   0.01754   0.00223  18.98156   0.04655  89.11569        6612.00       17301.93     1.24249     1.89419   179.54105     0.17561     0.00000   145.91911   145.91911
    15      129.39165       39.62415    -3     5    -7  -0.19794   0.27072   0.01063  13.62222   0.05947  99.85447         836.00        3114.93     1.56354     1.78907   170.45218     0.11137     0.00000   475.05701   475.05701
    18      438.70386       20.95785    -6     6    -8   0.42105   0.32789   0.01969  17.14140   0.04648 102.15960       16148.00       31392.93     1.22820     1.67355     6.79935     0.22300     0.00000   129.73100   129.73100
    30     1012.71039      601.53070    -9     5    -3   0.04849  -0.13368   0.00408  21.60265   0.05069  68.96084         487.00        2027.93     1.23905     1.99774     6.63507     0.09022     0.00000   699.00372   699.00372
    16      753.59442      232.69058    -7     5    -5  -0.31937   0.18784   0.01525  16.22899   0.05456  88.87570        7624.00       18825.93     1.08872     1.94743   179.99910     0.30261     0.00000   464.02411   464.02411
    21      145.61285      355.20367    -3     7    -7  -0.00295  -0.00497   0.00019  18.14113   0.05244  81.32742       20797.00       30466.93     1.15640     1.27021   179.11121     0.18795     0.00000   753.87573   753.87573
    23      364.76044      259.68561    -5     7    -7  -0.03663  -0.05770   0.00251  18.42665   0.04893  86.88705        9108.00       15322.93     1.19781     1.31855     1.30791     0.17964     0.00000   365.10260   365.10260
    29      784.14551       52.53259   -10     6    -8  -0.04591  -0.11313   0.00395  21.07705   0.03835 100.15351        4932.00        8596.93     1.11960     1.34333   177.07986     0.14540     0.00000   262.04221   262.04221
    33      300.67831       92.98275    -6     8   -10  -0.05649   0.05574   0.00288  21.53635   0.03833  97.33995         610.00        2434.22     1.36405     1.79847    16.01220     0.11308     0.00000   971.97046   971.97046
    25      919.92932      273.25653    -9     5    -5   0.13257  -0.07508   0.00578  19.04946   0.04744  86.63367         823.00        2409.93     1.13867     1.81486   176.61256     0.09371     0.00000   301.01523   301.01523
    26       27.57807      162.45573    -3     7    -9   0.36955   0.06180   0.01252  18.66668   0.04596  92.52605        3198.00       10506.93     1.64998     1.87048    15.47341     0.18274     0.00000   920.14069   920.14069
    24      822.87573       31.36604    -9     5    -7   0.18520  -0.16578   0.00832  18.39916   0.04356 101.33237         845.00        3769.93     1.69913     1.79316    84.90499     0.13719     0.00000   784.11237   784.11237
    27      261.67828       78.65893    -5     7    -9  -0.05819  -0.01285   0.00228  18.85185   0.04354  98.10494        3784.00        9224.93     1.39378     1.67271   167.19325     0.16769     0.00000    27.93158    27.93158
    35      698.73029      226.35904    -9     7    -7   0.06897  -0.12595   0.00508  21.75103   0.04057  89.25087           0.00           0.00     0.00000     0.00000     0.00000     0.00000     0.00000     0.00000     0.00000
    28      454.66702       47.75048    -7     7    -9  -0.00081   0.04677   0.00147  19.89156   0.04052 100.53962        3681.00       10729.93     1.48287     1.87186    43.29105     0.20641     0.00000   823.11670   823.11670
    32      971.56555       85.57001   -11     5    -7  -0.32835  -0.35997   0.01582  21.19151   0.03885  97.71102         620.00        2442.93     1.35210     1.77635    11.15650     0.11141     0.00000   971.97949   971.97949
latticeparameters=   0.54330   0.54479   0.54093  89.94541  90.19026  90.25806
dpsx, dpsy: 179.00000 168.38699
dd, xcent, ycent:      150.57201      540.60303      212.87601
pitch,yaw,roll:  -0.22645   0.61642   0.00000
dev1, dev2, pixdev:   0.01234   0.01217   0.25135
deviatoric strain in crystal reference u1 u2 u3 (*10^3)
   0.55180  -2.25941  -1.65402
  -2.25941   3.28077   0.46710
  -1.65402   0.46710  -3.81973
deviatoric strain in sample reference X Y Z (*10^3)
  -0.23970  -0.93776   0.54473
  -0.93776   4.55813   0.16080
   0.54473   0.16080  -4.30559
deviatoric principal strains (*10^3):   4.73527  -0.33604  -4.38639
deviatoric strain principal axes in sample reference:
  -0.18456   0.98280   0.00636
   0.97318   0.18184   0.14091
  -0.13733  -0.03220   0.99000
deviatoric stress in crystal reference u1 u2 u3 (MPa)
       56.93864     -359.29141     -263.02237
     -359.29141      334.47467       74.27839
     -263.02237       74.27839     -387.64569
deviatoric stress in sample reference X Y Z (MPa)
      -37.71505     -207.32513      -20.90262
     -207.32513      560.63391       20.84637
      -20.90262       20.84637     -519.15125
deviatoric principal stresses (MPa):      626.04645     -102.08007     -520.19873
deviatoric stress principal axes in sample reference:
       -0.29872        0.95407        0.02282
       -0.95358       -0.29935        0.03283
        0.03815       -0.01195        0.99920
total strain in sample reference X Y Z (*10^3)
   1.52901  -0.93776   0.54473
  -0.93776   6.32683   0.16080
   0.54473   0.16080  -2.53688
total principal strains (*10^3):   6.50397   1.43266  -2.61768
total strain principal axes in sample reference:
  -0.18456   0.98280   0.00636
   0.97318   0.18184   0.14091
  -0.13733  -0.03220   0.99000
total stress in crystal reference u1 u2 u3 (MPa)
      576.08990     -359.29141     -263.02237
     -359.29141      853.62592       74.27839
     -263.02237       74.27839      131.50555
total stress in sample reference X Y Z (MPa)
      481.43619     -207.32513      -20.90262
     -207.32513     1079.78516       20.84637
      -20.90262       20.84637        0.00000
total principal stresses (MPa):     1145.19763      417.07120       -1.04750
total stress principal axes in sample reference:
       -0.29872        0.95407        0.02282
       -0.95358       -0.29935        0.03283
        0.03815       -0.01195        0.99920
dilatational strain (*10^-3):        1.76871
hydrostatic stress (MPa):      520.40710
Von Mises stress (MPa):     1004.70630
equivalent strain (*10^-3):        5.27737
equivalent stress (MPa):     1004.70630
maximum resolved shear stress:       24.47314
coordinates of a, b, c in X, Y, Z
   0.44453  -0.20241   0.23859
   0.19245   0.50583   0.06496
  -0.24574   0.03227   0.48114
coordinates of a*, b*, c* in X, Y, Z
   1.50619  -0.67769   0.81474
   0.65600   1.70117   0.22097
  -0.83546   0.10638   1.64684
