\\vmware-host\Shared Folders\Desktop\SiHyperlaueFinal_shielded_results\results_00109.STR
Number of grains:       1
Grain no:       1   Grainlist file index:       1    Number of peaks:      32
no   x(exp)  y(exp)  h  k  l xdev  ydev  angdev  energy  dspace  twotheta  intens   integr  xwidth   ywidth  tilt  rfactor   pearson  xcentroid  ycentroid
     2      392.64029      871.99561    -2     4    -2  -0.30597  -0.12223   0.01782  12.44996   0.11103  53.29161       29313.00       93461.63     1.68583     2.04090   178.54103     0.21267     0.00000   746.68225   746.68225
     5      746.38892      951.27911    -3     3    -1  -0.39364   0.51009   0.02442  11.59459   0.12489  50.69742       32508.00       81480.63     1.57172     1.84194   168.30688     0.22403     0.00000  1026.77771  1026.77771
    14      991.68561      299.62003    -4     2    -2   0.14522  -0.10594   0.00636   8.25873   0.11083  85.26132       11718.00       27304.63     1.50293     1.68373    58.77773     0.21357     0.00000   859.20178   859.20178
     4      546.07410      225.14853    -3     3    -3   0.08058   0.19165   0.00732   8.45369   0.10445  89.18987       39625.00      138374.63     1.82803     1.87601    18.90782     0.22454     0.00000   546.38452   546.38452
     7     1026.48120      909.52307    -5     3    -1  -0.27493   0.23761   0.01359  14.49368   0.09196  55.43465       29851.00      146120.63     1.90653     2.91537   175.52776     0.30987     0.00000   426.88419   426.88419
     6      924.98364      682.97321    -6     4    -2   0.13108   0.05995   0.00616  16.08342   0.07267  64.06299       33756.00       88913.63     1.73531     1.74510    21.28493     0.26183     0.00000   925.34851   925.34851
     3      426.64862      666.11511    -3     5    -3   0.45307  -0.10961   0.02496  14.36209   0.08291  62.75037       24604.00       38024.63     1.23451     1.24107   166.36397     0.18219     0.00000   992.03632   992.03632
    12      648.66705      500.21460    -6     6    -4   0.17075   0.03106   0.00893  18.19314   0.05794  72.04438       30482.00       51463.63     1.21346     1.52546   179.41048     0.21275     0.00000   282.89032   282.89032
     8      668.66693      570.49408    -5     5    -3   0.11480  -0.02758   0.00615  15.64327   0.07078  68.09203       19086.00       40513.63     1.08898     1.87419   179.97627     0.19057     0.00000   649.00226   649.00226
    13      868.12860      257.27200    -5     3    -3   0.07215   0.19627   0.00669  10.82898   0.08279  87.48883       11996.00       20896.63     1.19796     1.45075     3.87138     0.17852     0.00000   258.92877   258.92877
     9      331.59583      270.37296    -4     6    -6  -0.48652  -0.01761   0.02198  15.68489   0.05784  86.20942       44502.00       66949.63     1.08472     1.54326   179.97966     0.19141     0.00000   669.00458   669.00458
    10      282.61633      288.48654    -3     5    -5  -0.40484  -0.01689   0.01796  12.97873   0.07063  85.09904       12821.00       38177.63     1.79604     1.88556    10.31067     0.20348     0.00000   868.34424   868.34424
    19      258.62259      619.59650    -3     7    -5  -0.01963  -0.36654   0.00970  19.09470   0.05963  65.97933       11870.00       24051.63     1.17048     1.71943   177.82152     0.21254     0.00000   439.06903   439.06903
    17      858.90906      567.50177    -7     5    -3   0.15180  -0.27932   0.01071  18.25012   0.05967  69.39292        8044.00       16542.63     1.24675     1.56619   177.47487     0.20588     0.00000   722.15112   722.15112
    31      474.99405      454.82730    -6     8    -6   0.05636   0.08282   0.00389  21.97159   0.04658  74.55511        2465.00        5479.63     1.08588     1.51290     0.71914     0.15120     0.00000   455.01349   455.01349
    20      463.66974      498.15140    -5     7    -5   0.36801  -0.10103   0.01948  19.31791   0.05461  71.98100        1130.00        3206.63     1.38101     1.53315   162.59154     0.10732     0.00000  1013.00531  1013.00531
    21      721.87164      228.63022    -8     6    -6   0.04116   0.01584   0.00191  18.98149   0.04655  89.11614       20017.00       29004.63     1.15497     1.26067   179.04311     0.18300     0.00000   753.89130   753.89130
    15      129.38367       39.62548    -3     5    -7  -0.18896   0.27370   0.01048  13.62233   0.05947  99.85423         869.00        2878.63     1.52365     1.75299     9.01097     0.10168     0.00000   475.04572   475.04572
    18      438.69931       20.96039    -6     6    -8   0.42410   0.32401   0.01974  17.14147   0.04648 102.15968       15445.00       30029.63     1.22553     1.68545     6.35554     0.21659     0.00000   129.73946   129.73946
    30     1012.71832      601.56616    -9     5    -3   0.04571  -0.18035   0.00507  21.60239   0.05069  68.96145         417.00        2141.63     1.27249     1.97574     5.24242     0.10798     0.00000   699.01398   699.01398
    16      753.59729      232.68968    -7     5    -5  -0.32216   0.18109   0.01528  16.22893   0.05456  88.87619        7289.00       17705.63     1.09012     1.94640     0.03439     0.29658     0.00000   464.00818   464.00818
    22      145.61333      355.20233    -3     7    -7  -0.00373   0.00132   0.00016  18.14123   0.05244  81.32713        6351.00       16493.63     1.24202     1.89829   179.67094     0.16815     0.00000   145.92918   145.92918
    23      364.75928      259.68396    -5     7    -7  -0.03679  -0.05575   0.00246  18.42668   0.04893  86.88704        8636.00       14396.63     1.18928     1.31678     1.42761     0.17443     0.00000   365.09827   365.09827
    29      784.12231       52.52224   -10     6    -8  -0.02335  -0.11095   0.00354  21.07704   0.03835 100.15401        4788.00        8354.63     1.11939     1.34450   177.10023     0.14424     0.00000   262.02011   262.02011
    32      300.68140       93.01934    -6     8   -10  -0.06049   0.02035   0.00252  21.53645   0.03833  97.33987         575.00        2310.63     1.34545     1.76399    14.62256     0.10866     0.00000   971.96497   971.96497
    24      919.95593      273.24014    -9     5    -5   0.10791  -0.06945   0.00481  19.04935   0.04744  86.63431         818.00        3585.63     1.61856     1.86291    81.78855     0.13373     0.00000   784.07953   784.07953
    26       27.58040      162.44933    -3     7    -9   0.36922   0.07402   0.01256  18.66682   0.04596  92.52572        2929.00       10106.63     1.69448     1.88158    17.77667     0.17664     0.00000   920.15137   920.15137
    25      822.88617       31.35618    -9     5    -7   0.17424  -0.16479   0.00797  18.39915   0.04356 101.33290         755.00        2411.63     1.14282     1.83855   177.01236     0.09694     0.00000   301.03165   301.03165
    27      261.67819       78.66546    -5     7    -9  -0.05870  -0.01745   0.00233  18.85195   0.04354  98.10482        3599.00        8908.63     1.37097     1.70192   169.67880     0.16624     0.00000    27.94253    27.94253
    34      698.73737      226.24524    -9     7    -7   0.06153  -0.01874   0.00283  21.75096   0.04057  89.25130         522.00        2764.24     1.23885     2.33164     5.66252     0.52932     0.00000   615.84363   615.84363
    28      454.66760       47.76539    -7     7    -9  -0.00291   0.03016   0.00095  19.89162   0.04052 100.53973        3441.00       10037.63     1.49616     1.88970    80.50868     0.19184     0.00000   823.13678   823.13678
    33      971.55853       85.56903   -11     5    -7  -0.32023  -0.37074   0.01583  21.19146   0.03885  97.71169         610.00        2434.22     1.36405     1.79847    16.01220     0.11308     0.00000   971.97046   971.97046
latticeparameters=   0.54330   0.54479   0.54092  89.94536  90.19119  90.25926
dpsx, dpsy: 179.00000 168.38699
dd, xcent, ycent:      150.57201      540.60303      212.87601
pitch,yaw,roll:  -0.22645   0.61642   0.00000
dev1, dev2, pixdev:   0.01232   0.01215   0.24997
deviatoric strain in crystal reference u1 u2 u3 (*10^3)
   0.55376  -2.26993  -1.66202
  -2.26993   3.28819   0.46745
  -1.66202   0.46745  -3.82906
deviatoric strain in sample reference X Y Z (*10^3)
  -0.23968  -0.94410   0.54264
  -0.94410   4.57237   0.15995
   0.54264   0.15995  -4.31979
deviatoric principal strains (*10^3):   4.75132  -0.33870  -4.39973
deviatoric strain principal axes in sample reference:
  -0.18520   0.98268   0.00625
   0.97319   0.18252   0.13998
  -0.13642  -0.03201   0.99013
deviatoric stress in crystal reference u1 u2 u3 (MPa)
       57.14200     -360.96414     -264.29498
     -360.96414      335.23392       74.33408
     -264.29498       74.33408     -388.59036
deviatoric stress in sample reference X Y Z (MPa)
      -37.72975     -208.45114      -21.50972
     -208.45114      562.52460       20.70390
      -21.50972       20.70390     -521.00922
deviatoric principal stresses (MPa):      628.40924     -102.52750     -522.09613
deviatoric stress principal axes in sample reference:
       -0.29924        0.95391        0.02278
       -0.95336       -0.29988        0.03417
        0.03942       -0.01150        0.99916
total strain in sample reference X Y Z (*10^3)
   1.53535  -0.94410   0.54264
  -0.94410   6.34741   0.15995
   0.54264   0.15995  -2.54475
total principal strains (*10^3):   6.52636   1.43634  -2.62469
total strain principal axes in sample reference:
  -0.18520   0.98268   0.00625
   0.97319   0.18252   0.13998
  -0.13642  -0.03201   0.99013
total stress in crystal reference u1 u2 u3 (MPa)
      578.15125     -360.96414     -264.29498
     -360.96414      856.24316       74.33408
     -264.29498       74.33408      132.41888
total stress in sample reference X Y Z (MPa)
      483.27948     -208.45114      -21.50972
     -208.45114     1083.53381       20.70390
      -21.50972       20.70390        0.00000
total principal stresses (MPa):     1149.41858      418.48169       -1.08690
total stress principal axes in sample reference:
       -0.29924        0.95391        0.02278
       -0.95336       -0.29988        0.03417
        0.03942       -0.01150        0.99916
dilatational strain (*10^-3):        1.77504
hydrostatic stress (MPa):      522.27112
Von Mises stress (MPa):     1008.45648
equivalent strain (*10^-3):        5.29448
equivalent stress (MPa):     1008.45648
maximum resolved shear stress:       24.78580
coordinates of a, b, c in X, Y, Z
   0.44453  -0.20242   0.23858
   0.19245   0.50584   0.06496
  -0.24575   0.03226   0.48113
coordinates of a*, b*, c* in X, Y, Z
   1.50619  -0.67767   0.81475
   0.65600   1.70116   0.22100
  -0.83546   0.10635   1.64687
