\\vmware-host\Shared Folders\Desktop\SiHyperlaueFinal_shielded_results\results_00096.STR
Number of grains:       1
Grain no:       1   Grainlist file index:       1    Number of peaks:      32
no   x(exp)  y(exp)  h  k  l xdev  ydev  angdev  energy  dspace  twotheta  intens   integr  xwidth   ywidth  tilt  rfactor   pearson  xcentroid  ycentroid
     2      392.63715      871.97473    -2     4    -2  -0.29674  -0.10634   0.01724  12.44959   0.11103  53.29179       30222.00      100694.06     1.72512     2.05548   178.60736     0.20757     0.00000   746.67090   746.67090
     5      746.36249      951.25775    -3     3    -1  -0.36819   0.51682   0.02318  11.59446   0.12489  50.69797       34452.00       86787.06     1.69430     1.78348    87.52714     0.20854     0.00000  1026.77698  1026.77698
    14      991.68506      299.61887    -4     2    -2   0.13645  -0.09521   0.00592   8.25871   0.11083  85.26075       12264.00       28455.06     1.49919     1.67043    54.96619     0.21898     0.00000   859.20459   859.20459
     4      546.06158      225.14780    -3     3    -3   0.09910   0.19637   0.00793   8.45347   0.10445  89.18962       41487.00      143640.06     1.81987     1.87577    21.23578     0.22638     0.00000   546.37524   546.37524
     7     1026.46497      909.48956    -5     3    -1  -0.27519   0.24935   0.01370  14.49363   0.09196  55.43527       31489.00      152572.06     1.90561     2.87751   175.14433     0.31011     0.00000   426.87503   426.87503
     6      925.00989      683.00781    -6     4    -2   0.09607   0.02117   0.00446  16.08341   0.07267  64.06310       34935.00       92227.06     1.62330     1.93004    65.26460     0.24501     0.00000   925.35229   925.35229
     3      426.64200      666.10974    -3     5    -3   0.46575  -0.10569   0.02565  14.36169   0.08291  62.75043       24795.00       38806.07     1.24029     1.24965   171.50774     0.18435     0.00000   992.03381   992.03381
    12      648.66748      500.22296    -6     6    -4   0.17384   0.02583   0.00908  18.19291   0.05794  72.04420       30952.00       53206.07     1.21694     1.55901   179.47968     0.21407     0.00000   282.88934   282.88934
     8      668.66718      570.49292    -5     5    -3   0.11731  -0.02465   0.00627  15.64310   0.07079  68.09194       19768.00       41507.07     1.09000     1.86900     0.03476     0.19062     0.00000   649.00476   649.00476
    13      868.11969      257.26648    -5     3    -3   0.07843   0.21157   0.00722  10.82891   0.08279  87.48823       12603.00       21919.06     1.20409     1.44727     3.84587     0.17997     0.00000   258.93741   258.93741
     9      331.59445      270.36090    -4     6    -6  -0.48042  -0.00640   0.02169  15.68426   0.05784  86.20948       46157.00       69124.06     1.08436     1.54310   179.96735     0.19110     0.00000   669.00128   669.00128
    10      282.61459      288.46970    -3     5    -5  -0.39946  -0.00166   0.01770  12.97817   0.07064  85.09914       13461.00       39737.07     1.72421     1.95720    59.71267     0.19901     0.00000   868.34888   868.34888
    19      258.62024      619.59485    -3     7    -5  -0.01330  -0.36593   0.00963  19.09394   0.05963  65.97936       12290.00       24996.06     1.17704     1.72772   177.71696     0.21186     0.00000   439.07840   439.07840
    17      858.90308      567.50427    -7     5    -3   0.15322  -0.28017   0.01078  18.25009   0.05967  69.39280        8386.00       16788.06     1.23884     1.53430   177.64153     0.20331     0.00000   722.13177   722.13177
    31      475.08469      454.84894    -6     8    -6  -0.02824   0.06260   0.00237  21.97102   0.04659  74.55502        2539.00        5561.06     1.08398     1.51051     0.45949     0.15009     0.00000   455.00220   455.00220
    20      463.67099      498.15878    -5     7    -5   0.37281  -0.10752   0.01975  19.31740   0.05461  71.98094        1183.00        3246.06     1.31571     1.59005   172.07681     0.10648     0.00000  1013.01471  1013.01471
    22      721.85358      228.63522    -8     6    -6   0.06208   0.01878   0.00284  18.98121   0.04655  89.11563        6640.00       17310.06     1.23837     1.89881   179.49567     0.17086     0.00000   145.94482   145.94482
    15      129.38425       39.62274    -3     5    -7  -0.19341   0.26844   0.01047  13.62157   0.05947  99.85467         838.00        3063.06     1.51871     1.84456   178.20941     0.10389     0.00000   475.03900   475.03900
    18      438.70157       20.96838    -6     6    -8   0.42792   0.31610   0.01975  17.14081   0.04649 102.15968       15883.00       31208.06     1.23125     1.68415     6.73865     0.22263     0.00000   129.72736   129.72736
    30     1012.70508      601.53723    -9     5    -3   0.04543  -0.15341   0.00444  21.60242   0.05069  68.96142         480.00        2137.06     1.30152     1.98803     7.97627     0.09912     0.00000   698.98645   698.98645
    16      753.59821      232.69055    -7     5    -5  -0.32118   0.18870   0.01533  16.22872   0.05456  88.87565        7485.00       18405.06     1.08887     1.94760     0.05733     0.29910     0.00000   464.03052   464.03052
    21      145.61603      355.19601    -3     7    -7  -0.00736   0.00525   0.00033  18.14031   0.05245  81.32728       20542.00       29926.06     1.15976     1.26012   179.24760     0.18465     0.00000   753.88373   753.88373
    23      364.75436      259.68472    -5     7    -7  -0.02658  -0.05673   0.00219  18.42597   0.04893  86.88705        8821.00       14661.07     1.19772     1.30560     1.72393     0.17395     0.00000   365.09760   365.09760
    29      784.17828       52.53196   -10     6    -8  -0.07693  -0.11019   0.00460  21.07668   0.03835 100.15336        4793.00        8525.07     1.11694     1.36819   176.93829     0.14697     0.00000   262.00742   262.00742
    32      300.68530       93.00751    -6     8   -10  -0.06089   0.02908   0.00262  21.53547   0.03833  97.34007         588.00        2404.06     1.46526     1.67392    15.69161     0.10936     0.00000   972.00006   972.00006
    25      919.95276      273.25806    -9     5    -5   0.10587  -0.07744   0.00485  19.04926   0.04744  86.63371         764.00        2446.06     1.15130     1.84374   175.98647     0.09774     0.00000   300.99234   300.99234
    26       27.57175      162.44402    -3     7    -9   0.36894   0.07283   0.01254  18.66574   0.04597  92.52607        3128.00       10400.07     1.76031     1.80914   101.60548     0.17868     0.00000   920.16699   920.16699
    24      822.87061       31.37453    -9     5    -7   0.19113  -0.17160   0.00859  18.39886   0.04356 101.33221         792.00        3690.06     1.68899     1.89421    80.94050     0.13372     0.00000   784.09839   784.09839
    27      261.67941       78.66598    -5     7    -9  -0.05769  -0.02225   0.00232  18.85105   0.04354  98.10508        3642.00        9080.07     1.39578     1.70835   169.25061     0.16515     0.00000    27.93724    27.93724
    35      698.73883      226.30092    -9     7    -7   0.06356  -0.06692   0.00357  21.75061   0.04057  89.25082           0.00           0.00     0.00000     0.00000     0.00000     0.00000     0.00000     0.00000     0.00000
    28      454.66620       47.76792    -7     7    -9   0.00472   0.02845   0.00091  19.89089   0.04053 100.53969        3605.00       10446.07     1.47449     1.87014    55.41710     0.20316     0.00000   823.10608   823.10608
    33      971.52539       85.56730   -11     5    -7  -0.29266  -0.35507   0.01480  21.19128   0.03885  97.71090         610.00        2434.22     1.36405     1.79847    16.01220     0.11308     0.00000   971.97046   971.97046
latticeparameters=   0.54328   0.54479   0.54094  89.94721  90.19077  90.25656
dpsx, dpsy: 179.00000 168.38699
dd, xcent, ycent:      150.57201      540.60303      212.87601
pitch,yaw,roll:  -0.22645   0.61642   0.00000
dev1, dev2, pixdev:   0.01226   0.01205   0.24899
deviatoric strain in crystal reference u1 u2 u3 (*10^3)
   0.52336  -2.24629  -1.65850
  -2.24629   3.28764   0.45149
  -1.65850   0.45149  -3.79824
deviatoric strain in sample reference X Y Z (*10^3)
  -0.23749  -0.91387   0.52313
  -0.91387   4.54966   0.16022
   0.52313   0.16022  -4.29940
deviatoric principal strains (*10^3):   4.71862  -0.33158  -4.37428
deviatoric strain principal axes in sample reference:
  -0.18062   0.98353   0.00700
   0.97463   0.17802   0.13569
  -0.13221  -0.03133   0.99073
deviatoric stress in crystal reference u1 u2 u3 (MPa)
       54.04186     -357.20435     -263.73492
     -357.20435      335.16901       71.79620
     -263.73492       71.79620     -385.46524
deviatoric stress in sample reference X Y Z (MPa)
      -36.57988     -204.12518      -23.27541
     -204.12518      559.16803       20.38968
      -23.27541       20.38968     -518.84253
deviatoric principal stresses (MPa):      623.00684      -99.18581     -520.07538
deviatoric stress principal axes in sample reference:
       -0.29631        0.95481        0.02309
       -0.95410       -0.29701        0.03849
        0.04360       -0.01063        0.99899
total strain in sample reference X Y Z (*10^3)
   1.53016  -0.91387   0.52313
  -0.91387   6.31732   0.16022
   0.52313   0.16022  -2.53175
total principal strains (*10^3):   6.48628   1.43607  -2.60662
total strain principal axes in sample reference:
  -0.18062   0.98353   0.00700
   0.97463   0.17802   0.13569
  -0.13221  -0.03133   0.99073
total stress in crystal reference u1 u2 u3 (MPa)
      572.88440     -357.20435     -263.73492
     -357.20435      854.01154       71.79620
     -263.73492       71.79620      133.37730
total stress in sample reference X Y Z (MPa)
      482.26266     -204.12518      -23.27541
     -204.12518     1078.01062       20.38968
      -23.27541       20.38968        0.00000
total principal stresses (MPa):     1141.84924      419.65677       -1.23283
total stress principal axes in sample reference:
       -0.29630        0.95481        0.02309
       -0.95410       -0.29701        0.03849
        0.04360       -0.01063        0.99899
dilatational strain (*10^-3):        1.76766
hydrostatic stress (MPa):      520.09106
Von Mises stress (MPa):     1001.33588
equivalent strain (*10^-3):        5.26052
equivalent stress (MPa):     1001.33588
maximum resolved shear stress:       22.28898
coordinates of a, b, c in X, Y, Z
   0.44450  -0.20240   0.23858
   0.19247   0.50581   0.06495
  -0.24576   0.03227   0.48113
coordinates of a*, b*, c* in X, Y, Z
   1.50615  -0.67774   0.81478
   0.65597   1.70111   0.22098
  -0.83543   0.10643   1.64675
