\\vmware-host\Shared Folders\Desktop\SiHyperlaueFinal_shielded_results\results_00039.STR
Number of grains:       1
Grain no:       1   Grainlist file index:       1    Number of peaks:      33
no   x(exp)  y(exp)  h  k  l xdev  ydev  angdev  energy  dspace  twotheta  intens   integr  xwidth   ywidth  tilt  rfactor   pearson  xcentroid  ycentroid
     2      392.62320      871.99042    -2     4    -2  -0.32605  -0.11097   0.01891  12.44760   0.11105  53.29153       59279.00      204195.31     1.80021     2.06594   178.08226     0.21469     0.00000   746.61646   746.61646
     5      746.29846      951.30151    -3     3    -1  -0.32883   0.51936   0.02123  11.59362   0.12490  50.69601       49118.00      127583.32     1.66947     1.87025   100.99410     0.19695     0.00000  1026.74280  1026.74280
    13      991.66858      299.62228    -4     2    -2   0.11172  -0.03969   0.00442   8.25867   0.11084  85.25723       48728.00       84362.32     1.23086     1.56139   179.18175     0.22746     0.00000   282.87811   282.87811
     3      546.02875      225.15112    -3     3    -3   0.12423   0.19103   0.00853   8.45266   0.10446  89.18974       38841.00       58281.32     1.22788     1.23501   160.61420     0.18136     0.00000   992.00238   992.00238
     6     1026.42358      909.53479    -5     3    -1  -0.28251   0.25734   0.01408  14.49346   0.09197  55.43256       46112.00      122023.32     1.58990     1.95732   114.01340     0.24416     0.00000   925.33411   925.33411
     7      924.97333      683.05017    -6     4    -2   0.09875   0.02332   0.00459  16.08292   0.07268  64.06061        1001.00        2295.32     1.15783     1.40703     0.89800     0.08271     0.00000    61.99628    61.99628
    34       61.78972      407.69177    -1     3    -3   0.25254   0.28745   0.01311   7.85955   0.12447  78.64963         522.00        2764.24     1.23885     2.33164     5.66252     0.52932     0.00000   615.84363   615.84363
     4      426.61362      666.13330    -3     5    -3   0.46081  -0.13493   0.02544  14.35949   0.08292  62.75081       79382.00      261487.31     1.79117     1.87310     2.56876     0.23136     0.00000   546.37262   546.37262
    14      648.66711      500.24399    -6     6    -4   0.15811   0.01669   0.00824  18.19121   0.05795  72.04346       14393.00       25648.32     1.22189     1.46389     4.64247     0.19287     0.00000   258.90518   258.90518
     8      668.66681      570.51453    -5     5    -3   0.09990  -0.03027   0.00538  15.64167   0.07079  68.09098       48675.00      219500.31     1.89905     2.74178   175.19562     0.30584     0.00000   426.82068   426.82068
     9      868.07855      257.33084    -5     3    -3   0.09699   0.19251   0.00711  10.82862   0.08280  87.48542       25030.00       50770.32     1.08925     1.85526     0.04062     0.19496     0.00000   649.01404   649.01404
    11      331.58582      270.36206    -4     6    -6  -0.49655  -0.03867   0.02247  15.68203   0.05785  86.21145       32635.00       87841.32     1.65372     1.94263   132.98851     0.22133     0.00000   868.38623   868.38623
    10      282.60925      288.46817    -3     5    -5  -0.42577  -0.03628   0.01893  12.97621   0.07065  85.10141       63066.00       92724.32     1.08448     1.50825     0.02127     0.19269     0.00000   668.99841   668.99841
    19      258.61316      619.59106    -3     7    -5  -0.05989  -0.38263   0.01066  19.09051   0.05964  65.98078       23664.00       46673.32     1.24116     1.69155     7.18927     0.24060     0.00000   129.69406   129.69406
    17      858.86279      567.54266    -7     5    -3   0.16749  -0.28097   0.01129  18.24931   0.05968  69.39058        8733.00       21727.32     1.08675     1.94805     0.02319     0.29966     0.00000   464.01627   464.01627
    31      475.02139      454.85049    -6     8    -6   0.01366   0.05023   0.00169  21.96810   0.04659  74.55569         537.00        2183.32     1.22889     2.03263     4.99136     0.09621     0.00000   698.98438   698.98438
    20      463.66943      498.16956    -5     7    -5   0.35042  -0.12907   0.01870  19.31473   0.05462  71.98160       15093.00       30789.32     1.17267     1.73588   177.72124     0.22288     0.00000   439.07675   439.07675
    22      721.83563      228.64294    -8     6    -6   0.07023   0.03592   0.00334  18.98013   0.04655  89.11403       25917.00       38803.32     1.17113     1.29349   179.13214     0.20294     0.00000   753.85370   753.85370
    15      129.37898       39.61914    -3     5    -7  -0.21901   0.21436   0.01001  13.61970   0.05948  99.85782       16181.00       34313.32     1.45972     1.56785    77.11396     0.22490     0.00000   859.19537   859.19537
    18      438.70081       20.97393    -6     6    -8   0.42939   0.29818   0.01954  17.13919   0.04649 102.16045       10321.00       19997.32     1.22008     1.49126   179.30258     0.21486     0.00000   722.15497   722.15497
    30     1012.68750      601.57397    -9     5    -3   0.01716  -0.14021   0.00365  21.60218   0.05069  68.95847        5727.00        9912.32     1.12250     1.34842   178.86584     0.15304     0.00000   262.02045   262.02045
    16      753.58417      232.69714    -7     5    -5  -0.31883   0.21162   0.01553  16.22791   0.05456  88.87377        1007.00        3380.32     1.55733     1.77759   178.80865     0.10668     0.00000   475.07373   475.07373
    21      145.60655      355.19101    -3     7    -7  -0.05466  -0.03502   0.00252  18.13719   0.05245  81.33009        1334.00        3629.32     1.30874     1.58681   173.24094     0.11209     0.00000  1012.99121  1012.99121
    23      364.74875      259.68503    -5     7    -7  -0.04164  -0.08426   0.00332  18.42348   0.04893  86.88879        7745.00       20442.32     1.25501     1.90063   179.30182     0.18379     0.00000   145.92308   145.92308
    29      784.11755       52.59809   -10     6    -8  -0.02516  -0.13088   0.00415  21.07601   0.03836 100.15061        4468.00       12433.32     1.54635     1.71432    43.44819     0.22244     0.00000   823.13733   823.13733
    32      300.68121       92.95677    -6     8   -10  -0.07163   0.04451   0.00321  21.53278   0.03834  97.34222        2856.00        6258.32     1.08073     1.55388     1.02823     0.16118     0.00000   454.98862   454.98862
    24      919.91675      273.33633    -9     5    -5   0.11236  -0.10419   0.00549  19.04892   0.04744  86.63057       11023.00       18031.32     1.19633     1.29367     2.01808     0.18337     0.00000   365.12366   365.12366
    26       27.56499      162.41728    -3     7    -9   0.31502   0.03471   0.01062  18.66277   0.04597  92.52961         855.00        2620.32     1.14589     1.75040   175.74115     0.10913     0.00000   300.99637   300.99637
    25      822.84973       31.40046    -9     5    -7   0.19943  -0.14346   0.00842  18.39842   0.04356 101.32901         941.00        4127.32     1.46495     1.81679   167.71100     0.15568     0.00000   784.09119   784.09119
    27      261.68173       78.66097    -5     7    -9  -0.07769  -0.05774   0.00345  18.84863   0.04354  98.10749        4151.00       12453.32     1.69964     1.74843   104.57093     0.19987     0.00000   920.17096   920.17096
    36      698.72693      226.33249    -9     7    -7   0.06676  -0.07711   0.00388  21.74926   0.04058  89.24944           0.00           0.00     0.00000     0.00000     0.00000     0.00000     0.00000     0.00000     0.00000
    28      454.66641       47.78057    -7     7    -9   0.00402   0.00486   0.00022  19.88901   0.04053 100.54037        4165.00       10665.32     1.41557     1.74677   167.74187     0.17827     0.00000    27.90455    27.90455
    33      971.55646       85.59459   -11     5    -7  -0.35986  -0.30883   0.01572  21.19124   0.03885  97.70677         711.00        2477.32     1.36583     1.49864    19.78793     0.11208     0.00000   971.97693   971.97693
latticeparameters=   0.54323   0.54486   0.54093  89.95038  90.19428  90.25725
dpsx, dpsy: 179.00000 168.38699
dd, xcent, ycent:      150.57201      540.60303      212.87601
pitch,yaw,roll:  -0.22645   0.61642   0.00000
dev1, dev2, pixdev:   0.01233   0.01209   0.25454
deviatoric strain in crystal reference u1 u2 u3 (*10^3)
   0.42963  -2.25256  -1.68895
  -2.25256   3.40699   0.42377
  -1.68895   0.42377  -3.82341
deviatoric strain in sample reference X Y Z (*10^3)
  -0.26254  -0.84401   0.47952
  -0.84401   4.64188   0.17224
   0.47952   0.17224  -4.36613
deviatoric principal strains (*10^3):   4.78397  -0.34130  -4.42946
deviatoric strain principal axes in sample reference:
  -0.16403   0.98641   0.00997
   0.97910   0.16156   0.12356
  -0.12027  -0.03003   0.99229
deviatoric stress in crystal reference u1 u2 u3 (MPa)
       44.53814     -358.20203     -268.57730
     -358.20203      347.33585       67.38843
     -268.57730       67.38843     -387.99634
deviatoric stress in sample reference X Y Z (MPa)
      -37.54543     -196.96800      -29.15489
     -196.96800      568.76038       20.72351
      -29.15489       20.72351     -527.33728
deviatoric principal stresses (MPa):      627.81592      -94.79165     -529.14655
deviatoric stress principal axes in sample reference:
       -0.28475        0.95829        0.02438
       -0.95698       -0.28566        0.05082
        0.05566       -0.00886        0.99841
total strain in sample reference X Y Z (*10^3)
   1.53405  -0.84401   0.47952
  -0.84401   6.43848   0.17224
   0.47952   0.17224  -2.56953
total principal strains (*10^3):   6.58057   1.45530  -2.63287
total strain principal axes in sample reference:
  -0.16403   0.98641   0.00997
   0.97910   0.16156   0.12356
  -0.12027  -0.03003   0.99229
total stress in crystal reference u1 u2 u3 (MPa)
      571.87543     -358.20203     -268.57730
     -358.20203      874.67316       67.38843
     -268.57730       67.38843      139.34093
total stress in sample reference X Y Z (MPa)
      489.79184     -196.96800      -29.15489
     -196.96800     1096.09766       20.72351
      -29.15489       20.72351        0.00000
total principal stresses (MPa):     1155.15320      432.54559       -1.80929
total stress principal axes in sample reference:
       -0.28475        0.95829        0.02438
       -0.95698       -0.28566        0.05082
        0.05566       -0.00886        0.99841
dilatational strain (*10^-3):        1.79660
hydrostatic stress (MPa):      528.62982
Von Mises stress (MPa):     1012.27173
equivalent strain (*10^-3):        5.33060
equivalent stress (MPa):     1012.27173
maximum resolved shear stress:       13.65071
coordinates of a, b, c in X, Y, Z
   0.44440  -0.20244   0.23851
   0.19254   0.50579   0.06498
  -0.24574   0.03225   0.48107
coordinates of a*, b*, c* in X, Y, Z
   1.50604  -0.67798   0.81477
   0.65604   1.70065   0.22111
  -0.83529   0.10642   1.64668
