\\vmware-host\Shared Folders\Desktop\SiHyperlaueFinal_shielded_results\results_00138.STR
Number of grains:       1
Grain no:       1   Grainlist file index:       1    Number of peaks:      32
no   x(exp)  y(exp)  h  k  l xdev  ydev  angdev  energy  dspace  twotheta  intens   integr  xwidth   ywidth  tilt  rfactor   pearson  xcentroid  ycentroid
     4      392.64166      872.05194    -2     4    -2  -0.28802  -0.13317   0.01686  12.44999   0.11103  53.28963       34333.00      128070.80     1.83598     1.88501    13.72241     0.22300     0.00000   546.38812   546.38812
     7      746.38361      951.31396    -3     3    -1  -0.37676   0.48945   0.02338  11.59464   0.12489  50.69696       27178.00      134779.80     1.90906     2.97192   176.43906     0.30858     0.00000   426.90738   426.90738
    13      991.68555      299.60989    -4     2    -2   0.14683  -0.10224   0.00636   8.25860   0.11083  85.26170       11943.00       20594.80     1.18618     1.43252     3.08382     0.17785     0.00000   258.93924   258.93924
     3      546.08600      225.18933    -3     3    -3   0.07906   0.15996   0.00641   8.45342   0.10445  89.18928       22605.00       36256.80     1.24602     1.26255    10.25690     0.19112     0.00000   992.03448   992.03448
     6     1026.45642      909.49371    -5     3    -1  -0.25127   0.24562   0.01268  14.49355   0.09196  55.43546       29668.00       80332.80     1.68831     1.89731   107.61542     0.24058     0.00000   925.34814   925.34814
     5      925.03101      683.00964    -6     4    -2   0.08755   0.02047   0.00407  16.08332   0.07267  64.06318       26991.00       68438.80     1.58994     1.89548   125.62250     0.18219     0.00000  1026.78467  1026.78467
     2      426.66187      666.14166    -3     5    -3   0.45692  -0.10457   0.02516  14.36195   0.08291  62.74870       22388.00       67768.80     1.67910     2.01400   172.51735     0.20271     0.00000   746.70514   746.70514
    12      648.66779      500.21573    -6     6    -4   0.18233   0.04483   0.00957  18.19293   0.05794  72.04354       28888.00       48077.80     1.20571     1.50654   178.88469     0.20916     0.00000   282.89999   282.89999
     8      668.66711      570.49323    -5     5    -3   0.12700  -0.01104   0.00675  15.64315   0.07079  68.09121       18409.00       39036.80     1.08970     1.87272   179.97330     0.18976     0.00000   648.99518   648.99518
    14      868.12384      257.29889    -5     3    -3   0.08227   0.16883   0.00617  10.82878   0.08280  87.48887       11021.00       26396.80     1.51516     1.70568    62.84629     0.21649     0.00000   859.21143   859.21143
     9      331.60049      270.39676    -4     6    -6  -0.48137  -0.02591   0.02176  15.68426   0.05784  86.20844       42021.00       63264.80     1.08493     1.54390     0.03513     0.19026     0.00000   669.00262   669.00262
    10      282.61914      288.49689    -3     5    -5  -0.39842  -0.00979   0.01766  12.97819   0.07064  85.09795       11913.00       35187.80     1.79641     1.86241   155.22301     0.20193     0.00000   868.34125   868.34125
    19      258.62717      619.60229    -3     7    -5  -0.00853  -0.33614   0.00882  19.09430   0.05963  65.97734       11559.00       23868.80     1.17609     1.73543   177.54221     0.21370     0.00000   439.08044   439.08044
    17      858.91486      567.48755    -7     5    -3   0.15237  -0.26192   0.01039  18.24999   0.05968  69.39280        7781.00       16228.80     1.24456     1.58461   177.63391     0.20557     0.00000   722.16925   722.16925
    31      475.10913      454.85040    -6     8    -6  -0.04453   0.07980   0.00330  21.97112   0.04659  74.55389        2362.00        5244.80     1.08295     1.53729     0.78764     0.14482     0.00000   454.99698   454.99698
    20      463.67075      498.15829    -5     7    -5   0.38184  -0.08565   0.02015  19.31754   0.05461  71.97967        1050.00        3016.80     1.34296     1.62091   172.57861     0.10188     0.00000  1013.02386  1013.02386
    21      721.88092      228.63011    -8     6    -6   0.04040   0.02042   0.00192  18.98104   0.04655  89.11586       19624.00       28343.80     1.15392     1.25414   178.99605     0.18090     0.00000   753.88336   753.88336
    15      129.38213       39.63183    -3     5    -7  -0.19227   0.27443   0.01058  13.62152   0.05947  99.85380         770.00        2956.80     1.55234     1.85870   177.98019     0.10394     0.00000   475.05588   475.05588
    18      438.70239       20.97435    -6     6    -8   0.42645   0.31180   0.01964  17.14067   0.04649 102.15958       15003.00       29045.80     1.21619     1.68769     5.99951     0.21235     0.00000   129.74055   129.74055
    30     1012.72070      601.54364    -9     5    -3   0.04342  -0.16756   0.00473  21.60219   0.05069  68.96194         433.00        1978.80     1.30138     1.92851     1.50044     0.09725     0.00000   699.00830   699.00830
    16      753.60028      232.68718    -7     5    -5  -0.31719   0.18711   0.01515  16.22856   0.05456  88.87597        7146.00       17494.80     1.09261     1.94844     0.03600     0.29640     0.00000   464.01047   464.01047
    22      145.61765      355.23160    -3     7    -7  -0.00129  -0.00332   0.00011  18.14042   0.05245  81.32568        6385.00       16175.80     1.23394     1.88709   179.14687     0.17134     0.00000   145.93346   145.93346
    23      364.76459      259.68253    -5     7    -7  -0.03199  -0.04002   0.00195  18.42595   0.04893  86.88612        8404.00       14300.80     1.19273     1.33423     3.17323     0.17646     0.00000   365.08685   365.08685
    29      784.13611       52.47659   -10     6    -8  -0.03110  -0.06859   0.00246  21.07641   0.03835 100.15419        4757.00        8172.80     1.11435     1.32086   178.72920     0.14205     0.00000   262.02100   262.02100
    32      300.67773       93.03872    -6     8   -10  -0.05256   0.00826   0.00213  21.53537   0.03834  97.33943         609.00        2346.80     1.34130     1.75796    13.47460     0.10872     0.00000   971.97870   971.97870
    24      919.97327      273.21344    -9     5    -5   0.09446  -0.04555   0.00403  19.04901   0.04744  86.63449         760.00        3482.80     1.75733     1.77816   124.61169     0.12701     0.00000   784.06891   784.06891
    26       27.58168      162.47649    -3     7    -9   0.36203   0.06374   0.01228  18.66574   0.04597  92.52476        2910.00       10308.80     1.70748     1.91438    76.03313     0.17473     0.00000   920.15259   920.15259
    25      822.88287       31.33556    -9     5    -7   0.18289  -0.14938   0.00798  18.39861   0.04356 101.33319         743.00        2454.80     1.11683     1.88518   177.59393     0.10050     0.00000   301.00623   301.00623
    27      261.67944       78.67146    -5     7    -9  -0.05742  -0.01634   0.00227  18.85096   0.04354  98.10439        3603.00        8784.80     1.38765     1.65333   168.70509     0.16466     0.00000    27.92720    27.92720
    35      698.74890      226.32025    -9     7    -7   0.05888  -0.08861   0.00388  21.75042   0.04057  89.25097           0.00           0.00     0.00000     0.00000     0.00000     0.00000     0.00000     0.00000     0.00000
    28      454.66513       47.77018    -7     7    -9   0.00590   0.02825   0.00092  19.89073   0.04053 100.53956        3332.00       10009.80     1.49972     1.90180    70.79876     0.19591     0.00000   823.13281   823.13281
    33      971.55658       85.54691   -11     5    -7  -0.31574  -0.35747   0.01544  21.19096   0.03885  97.71219         592.00        2329.02     1.30070     1.83220    10.00210     0.10838     0.00000   971.97760   971.97760
latticeparameters=   0.54329   0.54479   0.54094  89.94963  90.19090  90.25700
dpsx, dpsy: 179.00000 168.38699
dd, xcent, ycent:      150.57201      540.60303      212.87601
pitch,yaw,roll:  -0.22645   0.61642   0.00000
dev1, dev2, pixdev:   0.01214   0.01192   0.24131
deviatoric strain in crystal reference u1 u2 u3 (*10^3)
   0.53060  -2.25010  -1.65963
  -2.25010   3.28044   0.43046
  -1.65963   0.43046  -3.79830
deviatoric strain in sample reference X Y Z (*10^3)
  -0.22819  -0.91275   0.51841
  -0.91275   4.54490   0.13957
   0.51841   0.13957  -4.30397
deviatoric principal strains (*10^3):   4.71370  -0.32482  -4.37614
deviatoric strain principal axes in sample reference:
  -0.18114   0.98345   0.00481
   0.97480   0.17889   0.13327
  -0.13021  -0.02883   0.99107
deviatoric stress in crystal reference u1 u2 u3 (MPa)
       54.77701     -357.81067     -263.91364
     -357.81067      334.43524       68.45104
     -263.91364       68.45104     -385.47238
deviatoric stress in sample reference X Y Z (MPa)
      -35.32174     -203.68442      -24.15968
     -203.68442      558.70581       17.22338
      -24.15968       17.22338     -519.64417
deviatoric principal stresses (MPa):      622.32526      -97.68857     -520.89679
deviatoric stress principal axes in sample reference:
       -0.29648        0.95481        0.02067
       -0.95390       -0.29712        0.04249
        0.04671       -0.00712        0.99888
total strain in sample reference X Y Z (*10^3)
   1.54220  -0.91275   0.51841
  -0.91275   6.31529   0.13957
   0.51841   0.13957  -2.53358
total principal strains (*10^3):   6.48409   1.44557  -2.60575
total strain principal axes in sample reference:
  -0.18114   0.98345   0.00481
   0.97480   0.17889   0.13327
  -0.13021  -0.02883   0.99107
total stress in crystal reference u1 u2 u3 (MPa)
      574.42120     -357.81067     -263.91364
     -357.81067      854.07941       68.45104
     -263.91364       68.45104      134.17181
total stress in sample reference X Y Z (MPa)
      484.32242     -203.68442      -24.15968
     -203.68442     1078.34998       17.22338
      -24.15968       17.22338        0.00000
total principal stresses (MPa):     1141.96948      421.95557       -1.25261
total stress principal axes in sample reference:
       -0.29648        0.95481        0.02067
       -0.95390       -0.29712        0.04249
        0.04671       -0.00712        0.99888
dilatational strain (*10^-3):        1.77039
hydrostatic stress (MPa):      520.89081
Von Mises stress (MPa):     1001.11981
equivalent strain (*10^-3):        5.25833
equivalent stress (MPa):     1001.11981
maximum resolved shear stress:       21.59365
coordinates of a, b, c in X, Y, Z
   0.44450  -0.20239   0.23860
   0.19246   0.50582   0.06495
  -0.24578   0.03225   0.48113
coordinates of a*, b*, c* in X, Y, Z
   1.50614  -0.67770   0.81482
   0.65593   1.70115   0.22104
  -0.83546   0.10644   1.64675
