\\vmware-host\Shared Folders\Desktop\SiHyperlaueFinal_shielded_results\results_00038.STR
Number of grains:       1
Grain no:       1   Grainlist file index:       1    Number of peaks:      33
no   x(exp)  y(exp)  h  k  l xdev  ydev  angdev  energy  dspace  twotheta  intens   integr  xwidth   ywidth  tilt  rfactor   pearson  xcentroid  ycentroid
     2      392.62259      871.98859    -2     4    -2  -0.32319  -0.10907   0.01875  12.44825   0.11104  53.29151       58556.00      200977.78     1.79303     2.06419   178.00305     0.21665     0.00000   746.61761   746.61761
     5      746.30573      951.30103    -3     3    -1  -0.34009   0.53303   0.02191  11.59411   0.12490  50.69547       48669.00      125596.78     1.67522     1.84050   106.29509     0.19831     0.00000  1026.74353  1026.74353
    13      991.66797      299.62256    -4     2    -2   0.11503  -0.04476   0.00458   8.25876   0.11084  85.25752       48319.00       83931.78     1.23327     1.56210   179.13017     0.22853     0.00000   282.87308   282.87308
     3      546.02753      225.15195    -3     3    -3   0.12165   0.18893   0.00840   8.45294   0.10446  89.18982       38222.00       57783.78     1.22965     1.23926   172.90486     0.18208     0.00000   992.00287   992.00287
     6     1026.42419      909.53198    -5     3    -1  -0.28259   0.27852   0.01428  14.49387   0.09197  55.43185       45035.00      120398.78     1.59378     1.96564   115.62850     0.24232     0.00000   925.33575   925.33575
     7      924.97852      683.05511    -6     4    -2   0.09212   0.02636   0.00428  16.08333   0.07268  64.06021        1030.00        2323.78     1.13558     1.46258     0.13641     0.08259     0.00000    62.02335    62.02335
    35       61.82401      407.68015    -1     3    -3   0.23041   0.29388   0.01256   7.85995   0.12446  78.64986           0.00           0.00     0.00000     0.00000     0.00000     0.00000     0.00000     0.00000     0.00000
     4      426.61392      666.13068    -3     5    -3   0.46090  -0.12987   0.02543  14.36020   0.08292  62.75068       79235.00      260335.78     1.78928     1.87357     0.51414     0.23104     0.00000   546.37451   546.37451
    14      648.66736      500.25259    -6     6    -4   0.15414   0.01107   0.00803  18.19185   0.05795  72.04327       14089.00       24858.78     1.22197     1.44898     4.68453     0.18892     0.00000   258.91559   258.91559
     8      668.66687      570.51624    -5     5    -3   0.09609  -0.02775   0.00517  15.64224   0.07079  68.09073       48263.00      218186.78     1.89979     2.74122   175.11816     0.30604     0.00000   426.82101   426.82101
     9      868.06360      257.33612    -5     3    -3   0.11080   0.18239   0.00721  10.82879   0.08280  87.48572       24789.00       50108.78     1.08921     1.85271     0.01225     0.19652     0.00000   649.00690   649.00690
    11      331.58813      270.36505    -4     6    -6  -0.49853  -0.04147   0.02256  15.68273   0.05785  86.21144       32861.00       87151.78     1.64737     1.93061   147.08537     0.22492     0.00000   868.37793   868.37793
    10      282.60815      288.46796    -3     5    -5  -0.42274  -0.03609   0.01879  12.97681   0.07064  85.10141       62318.00       91456.78     1.08369     1.50570     0.14667     0.19266     0.00000   669.00244   669.00244
    19      258.61353      619.59711    -3     7    -5  -0.05442  -0.39088   0.01077  19.09151   0.05964  65.98086       23714.00       46351.78     1.24196     1.68476     7.33051     0.23926     0.00000   129.69698   129.69698
    17      858.85449      567.53870    -7     5    -3   0.17336  -0.27283   0.01135  18.24977   0.05968  69.39034        8680.00       21660.78     1.08535     1.94681   179.98280     0.30134     0.00000   464.00894   464.00894
    30      475.00024      454.84470    -6     8    -6   0.03310   0.05823   0.00249  21.96905   0.04659  74.55556        5747.00       10016.78     1.11663     1.33954   178.73735     0.15928     0.00000   262.00497   262.00497
    20      463.66873      498.17166    -5     7    -5   0.34984  -0.12869   0.01866  19.31559   0.05462  71.98145       15044.00       30682.78     1.17308     1.74400   177.78119     0.22015     0.00000   439.07614   439.07614
    22      721.83691      228.64384    -8     6    -6   0.06529   0.03148   0.00309  18.98058   0.04655  89.11426       25936.00       38620.78     1.17202     1.28946   179.14409     0.20045     0.00000   753.86395   753.86395
    15      129.38377       39.61939    -3     5    -7  -0.22074   0.21189   0.01001  13.62031   0.05948  99.85796       16108.00       34120.78     1.44739     1.57912    68.03533     0.22365     0.00000   859.19006   859.19006
    18      438.70123       20.97855    -6     6    -8   0.42477   0.28925   0.01925  17.13976   0.04649 102.16071       10329.00       19886.78     1.22237     1.49981   177.87399     0.21163     0.00000   722.15149   722.15149
    31     1012.68890      601.61090    -9     5    -3   0.01732  -0.17131   0.00441  21.60258   0.05069  68.95820         586.00        2403.78     1.18803     1.87865   179.56511     0.11005     0.00000   699.00250   699.00250
    16      753.58563      232.69765    -7     5    -5  -0.32360   0.20721   0.01566  16.22826   0.05456  88.87401        1027.00        3516.78     1.53657     1.77341     0.64761     0.11558     0.00000   475.08133   475.08133
    21      145.60429      355.19003    -3     7    -7  -0.04470  -0.03631   0.00217  18.13810   0.05245  81.33020        1252.00        3474.78     1.35221     1.56837   171.59450     0.10870     0.00000  1013.01697  1013.01697
    23      364.75076      259.68701    -5     7    -7  -0.04428  -0.08606   0.00343  18.42427   0.04893  86.88878        7649.00       20268.78     1.26238     1.89523   179.53070     0.18192     0.00000   145.91441   145.91441
    29      784.11707       52.53648   -10     6    -8  -0.02713  -0.07934   0.00268  21.07636   0.03835 100.15123        4410.00       12447.78     1.46244     1.81723    88.59890     0.22254     0.00000   823.12622   823.12622
    33      300.68295       92.94865    -6     8   -10  -0.07433   0.05097   0.00340  21.53367   0.03834  97.34232         687.00        2597.78     1.37735     1.66963    16.18430     0.11607     0.00000   971.95428   971.95428
    25      919.90985      273.31812    -9     5    -5   0.11954  -0.09095   0.00552  19.04919   0.04744  86.63087         936.00        3858.78     1.60561     1.87151    83.13778     0.13856     0.00000   784.09344   784.09344
    26       27.56477      162.41518    -3     7    -9   0.32460   0.03383   0.01094  18.66367   0.04597  92.52979         889.00        2555.78     1.11013     1.72787   176.61525     0.10371     0.00000   301.00232   301.00232
    24      822.86414       31.40435    -9     5    -7   0.18361  -0.15906   0.00816  18.39869   0.04356 101.32972       10713.00       17661.78     1.20539     1.29655     1.78058     0.18247     0.00000   365.10928   365.10928
    27      261.67993       78.66270    -5     7    -9  -0.07608  -0.06121   0.00345  18.84942   0.04354  98.10760        3940.00       11860.78     1.62387     1.81668    16.81426     0.19082     0.00000   920.15210   920.15210
    34      698.71991      226.38023    -9     7    -7   0.06992  -0.12810   0.00517  21.74980   0.04058  89.24964         522.00        2764.24     1.23885     2.33164     5.66252     0.52932     0.00000   615.84363   615.84363
    28      454.66489       47.75508    -7     7    -9   0.00141   0.02645   0.00083  19.88967   0.04053 100.54061        4284.00       10719.78     1.41143     1.73407   168.66119     0.17475     0.00000    27.92623    27.92623
    32      971.55048       85.57268   -11     5    -7  -0.35036  -0.29961   0.01529  21.19143   0.03885  97.70749        2896.00        6137.78     1.07913     1.49701     1.88709     0.15730     0.00000   454.96948   454.96948
latticeparameters=   0.54325   0.54484   0.54092  89.95001  90.19330  90.25726
dpsx, dpsy: 179.00000 168.38699
dd, xcent, ycent:      150.57201      540.60303      212.87601
pitch,yaw,roll:  -0.22645   0.61642   0.00000
dev1, dev2, pixdev:   0.01230   0.01209   0.25589
deviatoric strain in crystal reference u1 u2 u3 (*10^3)
   0.46740  -2.25259  -1.68042
  -2.25259   3.37635   0.42707
  -1.68042   0.42707  -3.83060
deviatoric strain in sample reference X Y Z (*10^3)
  -0.25000  -0.86505   0.50001
  -0.86505   4.62078   0.16225
   0.50001   0.16225  -4.35763
deviatoric principal strains (*10^3):   4.77047  -0.33184  -4.42548
deviatoric strain principal axes in sample reference:
  -0.16900   0.98558   0.00826
   0.97767   0.16657   0.12814
  -0.12492  -0.02973   0.99172
deviatoric stress in crystal reference u1 u2 u3 (MPa)
       48.37536     -358.20609     -267.21976
     -358.20609      344.21622       67.91311
     -267.21976       67.91311     -388.73126
deviatoric stress in sample reference X Y Z (MPa)
      -36.69274     -199.08156      -26.76132
     -199.08156      566.60626       19.71052
      -26.76132       19.71052     -526.05322
deviatoric principal stresses (MPa):      626.99158      -95.54166     -527.58954
deviatoric stress principal axes in sample reference:
       -0.28809        0.95733        0.02305
       -0.95625       -0.28888        0.04622
        0.05090       -0.00873        0.99867
total strain in sample reference X Y Z (*10^3)
   1.54222  -0.86505   0.50001
  -0.86505   6.41301   0.16225
   0.50001   0.16225  -2.56541
total principal strains (*10^3):   6.56270   1.46038  -2.63326
total strain principal axes in sample reference:
  -0.16900   0.98558   0.00826
   0.97767   0.16657   0.12814
  -0.12492  -0.02973   0.99172
total stress in crystal reference u1 u2 u3 (MPa)
      574.42859     -358.20609     -267.21976
     -358.20609      870.26947       67.91311
     -267.21976       67.91311      137.32198
total stress in sample reference X Y Z (MPa)
      489.36047     -199.08156      -26.76132
     -199.08156     1092.65955       19.71052
      -26.76132       19.71052        0.00000
total principal stresses (MPa):     1153.04480      430.51154       -1.53631
total stress principal axes in sample reference:
       -0.28809        0.95732        0.02305
       -0.95625       -0.28888        0.04622
        0.05090       -0.00873        0.99867
dilatational strain (*10^-3):        1.79222
hydrostatic stress (MPa):      527.34003
Von Mises stress (MPa):     1010.39026
equivalent strain (*10^-3):        5.31992
equivalent stress (MPa):     1010.39026
maximum resolved shear stress:       16.14441
coordinates of a, b, c in X, Y, Z
   0.44444  -0.20244   0.23852
   0.19253   0.50580   0.06497
  -0.24574   0.03225   0.48109
coordinates of a*, b*, c* in X, Y, Z
   1.50608  -0.67793   0.81474
   0.65605   1.70078   0.22108
  -0.83532   0.10644   1.64676
