\\vmware-host\Shared Folders\Desktop\SiHyperlaueFinal_shielded_results\results_00126.STR
Number of grains:       1
Grain no:       1   Grainlist file index:       1    Number of peaks:      32
no   x(exp)  y(exp)  h  k  l xdev  ydev  angdev  energy  dspace  twotheta  intens   integr  xwidth   ywidth  tilt  rfactor   pearson  xcentroid  ycentroid
     3      392.64139      872.03839    -2     4    -2  -0.29309  -0.12184   0.01710  12.44988   0.11103  53.28975       23952.00       37422.38     1.24242     1.24608   139.34613     0.18415     0.00000   992.02606   992.02606
     6      746.39807      951.33136    -3     3    -1  -0.39380   0.48495   0.02422  11.59466   0.12489  50.69645       32403.00       85558.38     1.67397     1.88663    55.87476     0.23902     0.00000   925.34869   925.34869
    13      991.68567      299.61566    -4     2    -2   0.14559  -0.10232   0.00632   8.25862   0.11083  85.26137       12049.00       20666.38     1.18846     1.43366     3.42790     0.17533     0.00000   258.92560   258.92560
     4      546.08319      225.17714    -3     3    -3   0.08095   0.16791   0.00667   8.45340   0.10445  89.18956       36709.00      134418.38     1.83423     1.88195    15.52281     0.22379     0.00000   546.38409   546.38409
     7     1026.48169      909.53162    -5     3    -1  -0.27843   0.22698   0.01365  14.49365   0.09196  55.43469       28958.00      142166.38     1.90804     2.95385   175.78716     0.31101     0.00000   426.89487   426.89487
     5      925.01587      683.00281    -6     4    -2   0.10113   0.03749   0.00472  16.08336   0.07267  64.06267       30853.00       76537.38     1.57177     1.81974   167.39517     0.22277     0.00000  1026.77686  1026.77686
     2      426.65823      666.13092    -3     5    -3   0.45637  -0.09782   0.02512  14.36182   0.08291  62.74891       26429.00       80309.38     1.67002     2.02369   178.45087     0.21088     0.00000   746.69391   746.69391
    12      648.66718      500.21277    -6     6    -4   0.18106   0.04781   0.00952  18.19286   0.05794  72.04353       30476.00       50236.38     1.20533     1.48827   178.96965     0.21124     0.00000   282.89926   282.89926
     8      668.66699      570.50146    -5     5    -3   0.12508  -0.01783   0.00666  15.64309   0.07079  68.09112       18923.00       40287.38     1.09016     1.87454   179.99033     0.19041     0.00000   649.01160   649.01160
    14      868.11560      257.30399    -5     3    -3   0.08989   0.16656   0.00629  10.82880   0.08280  87.48870       11421.00       27150.38     1.51358     1.68705    29.94640     0.22069     0.00000   859.19556   859.19556
     9      331.59924      270.38641    -4     6    -6  -0.48253  -0.02434   0.02181  15.68419   0.05784  86.20900       44132.00       65734.38     1.08415     1.52587   179.92142     0.19081     0.00000   669.00348   669.00348
    10      282.61884      288.50516    -3     5    -5  -0.40102  -0.02787   0.01781  12.97812   0.07064  85.09856       12639.00       36969.38     1.79196     1.85533   152.42734     0.20086     0.00000   868.33862   868.33862
    19      258.62692      619.59979    -3     7    -5  -0.01385  -0.34262   0.00903  19.09410   0.05963  65.97785       12058.00       24453.38     1.17689     1.71706   177.72185     0.21387     0.00000   439.08157   439.08157
    17      858.90375      567.48950    -7     5    -3   0.16209  -0.25766   0.01066  18.24999   0.05968  69.39246        8155.00       16822.38     1.24135     1.55175   177.29480     0.21274     0.00000   722.15295   722.15295
    31      475.07397      454.83948    -6     8    -6  -0.01211   0.08602   0.00267  21.97098   0.04659  74.55417        2564.00        5448.38     1.08704     1.49370     0.05050     0.14457     0.00000   454.99661   454.99661
    20      463.67081      498.15173    -5     7    -5   0.37872  -0.08373   0.01998  19.31740   0.05461  71.97994        1087.00        3108.38     1.31594     1.62752   172.85040     0.10368     0.00000  1013.00995  1013.00995
    21      721.86444      228.63239    -8     6    -6   0.05641   0.01771   0.00258  18.98103   0.04655  89.11589       20007.00       28878.38     1.15385     1.25605   179.02280     0.18148     0.00000   753.89337   753.89337
    15      129.38203       39.63112    -3     5    -7  -0.19308   0.26188   0.01032  13.62152   0.05947  99.85456         810.00        2984.38     1.55735     1.85102   172.80904     0.10233     0.00000   475.07019   475.07019
    18      438.70279       20.96042    -6     6    -8   0.42644   0.31911   0.01975  17.14069   0.04649 102.15999       15534.00       29947.38     1.21310     1.68845     5.72679     0.21150     0.00000   129.73354   129.73354
    30     1012.70050      601.53479    -9     5    -3   0.06205  -0.14838   0.00473  21.60226   0.05069  68.96141         461.00        2273.38     1.32341     1.92062   179.13132     0.10820     0.00000   699.00299   699.00299
    16      753.59930      232.68846    -7     5    -5  -0.31668   0.18609   0.01511  16.22856   0.05456  88.87595        7319.00       17917.38     1.09190     1.94934     0.12297     0.29839     0.00000   464.01346   464.01346
    22      145.61607      355.23804    -3     7    -7  -0.00423  -0.02246   0.00069  18.14030   0.05245  81.32643        6664.00       16645.38     1.23855     1.88671   179.01376     0.16971     0.00000   145.94740   145.94740
    23      364.76215      259.68790    -5     7    -7  -0.03167  -0.05347   0.00225  18.42588   0.04893  86.88664        8589.00       14549.38     1.19783     1.32587   179.28989     0.17638     0.00000   365.10959   365.10959
    29      784.15503       52.49428   -10     6    -8  -0.04970  -0.08575   0.00332  21.07647   0.03835 100.15416        4861.00        8452.38     1.12411     1.34531   177.03859     0.14309     0.00000   262.02274   262.02274
    32      300.67972       92.95769    -6     8   -10  -0.05539   0.07969   0.00335  21.53535   0.03834  97.34003         589.00        2388.38     1.36090     1.73232    14.91528     0.11177     0.00000   971.97650   971.97650
    24      919.94812      273.22388    -9     5    -5   0.11882  -0.05197   0.00502  19.04905   0.04744  86.63425         774.00        3812.38     1.71186     1.87596    77.96652     0.14110     0.00000   784.10217   784.10217
    26       27.57802      162.46692    -3     7    -9   0.36263   0.05775   0.01228  18.66570   0.04597  92.52563        3028.00       10426.38     1.68575     1.88603    17.74414     0.17969     0.00000   920.14221   920.14221
    25      822.88971       31.31389    -9     5    -7   0.17635  -0.12636   0.00744  18.39868   0.04356 101.33311         771.00        2478.38     1.12453     1.71908   176.76147     0.10606     0.00000   301.01962   301.01962
    27      261.67999       78.67043    -5     7    -9  -0.05881  -0.02573   0.00239  18.85095   0.04354  98.10502        3694.00        8924.38     1.39546     1.65491   169.07642     0.16167     0.00000    27.91571    27.91571
    34      698.76154      226.32352    -9     7    -7   0.04575  -0.09283   0.00361  21.75041   0.04057  89.25103         522.00        2764.24     1.23885     2.33164     5.66252     0.52932     0.00000   615.84363   615.84363
    28      454.66425       47.75919    -7     7    -9   0.00695   0.03291   0.00107  19.89075   0.04053 100.53995        3255.00       10091.38     1.56448     1.87703    74.11713     0.19504     0.00000   823.11652   823.11652
    33      971.57129       85.58930   -11     5    -7  -0.33108  -0.39549   0.01662  21.19105   0.03885  97.71194         615.00        2440.83     1.37278     1.71477    15.85652     0.11131     0.00000   971.99982   971.99982
latticeparameters=   0.54329   0.54479   0.54093  89.94973  90.19130  90.25758
dpsx, dpsy: 179.00000 168.38699
dd, xcent, ycent:      150.57201      540.60303      212.87601
pitch,yaw,roll:  -0.22645   0.61642   0.00000
dev1, dev2, pixdev:   0.01227   0.01209   0.24711
deviatoric strain in crystal reference u1 u2 u3 (*10^3)
   0.53237  -2.25518  -1.66304
  -2.25518   3.29281   0.42954
  -1.66304   0.42954  -3.81234
deviatoric strain in sample reference X Y Z (*10^3)
  -0.22846  -0.91233   0.52182
  -0.91233   4.55929   0.13853
   0.52182   0.13853  -4.31799
deviatoric principal strains (*10^3):   4.72744  -0.32388  -4.39072
deviatoric strain principal axes in sample reference:
  -0.18057   0.98355   0.00465
   0.97486   0.17835   0.13355
  -0.13052  -0.02864   0.99103
deviatoric stress in crystal reference u1 u2 u3 (MPa)
       54.96329     -358.61932     -264.45599
     -358.61932      335.69910       68.30476
     -264.45599       68.30476     -386.89459
deviatoric stress in sample reference X Y Z (MPa)
      -35.35639     -203.84198      -24.00810
     -203.84198      560.38159       17.03266
      -24.00810       17.03266     -521.25739
deviatoric principal stresses (MPa):      623.92932      -97.67198     -522.48956
deviatoric stress principal axes in sample reference:
       -0.29601        0.95497        0.02041
       -0.95406       -0.29663        0.04215
        0.04630       -0.00700        0.99890
total strain in sample reference X Y Z (*10^3)
   1.54742  -0.91233   0.52182
  -0.91233   6.33517   0.13853
   0.52182   0.13853  -2.54211
total principal strains (*10^3):   6.50332   1.45200  -2.61484
total strain principal axes in sample reference:
  -0.18057   0.98355   0.00465
   0.97486   0.17835   0.13355
  -0.13052  -0.02864   0.99103
total stress in crystal reference u1 u2 u3 (MPa)
      576.22064     -358.61932     -264.45599
     -358.61932      856.95648       68.30476
     -264.45599       68.30476      134.36279
total stress in sample reference X Y Z (MPa)
      485.90100     -203.84198      -24.00810
     -203.84198     1081.63892       17.03266
      -24.00810       17.03266        0.00000
total principal stresses (MPa):     1145.18665      423.58539       -1.23215
total stress principal axes in sample reference:
       -0.29601        0.95497        0.02041
       -0.95406       -0.29663        0.04215
        0.04630       -0.00700        0.99890
dilatational strain (*10^-3):        1.77588
hydrostatic stress (MPa):      522.51331
Von Mises stress (MPa):     1003.85620
equivalent strain (*10^-3):        5.27459
equivalent stress (MPa):     1003.85620
maximum resolved shear stress:       21.31819
coordinates of a, b, c in X, Y, Z
   0.44451  -0.20240   0.23859
   0.19246   0.50582   0.06495
  -0.24577   0.03225   0.48112
coordinates of a*, b*, c* in X, Y, Z
   1.50615  -0.67771   0.81480
   0.65594   1.70112   0.22106
  -0.83545   0.10643   1.64679
