\\vmware-host\Shared Folders\Desktop\SiHyperlaueFinal_shielded_results\results_00077.STR
Number of grains:       1
Grain no:       1   Grainlist file index:       1    Number of peaks:      33
no   x(exp)  y(exp)  h  k  l xdev  ydev  angdev  energy  dspace  twotheta  intens   integr  xwidth   ywidth  tilt  rfactor   pearson  xcentroid  ycentroid
     1      392.63208      871.96979    -2     4    -2  -0.32449  -0.11290   0.01883  12.44747   0.11105  53.29242      116207.00      229361.16     1.17072     1.87418     2.18514     0.18632     0.00000   392.89957   392.89957
     5      746.33759      951.25507    -3     3    -1  -0.35375   0.52101   0.02249  11.59323   0.12490  50.69783       41272.00      106075.15     1.60163     1.91833   108.75993     0.18229     0.00000  1026.76611  1026.76611
    13      991.67633      299.61902    -4     2    -2   0.11859  -0.06055   0.00487   8.25858   0.11084  85.25866       39504.00       67897.15     1.22292     1.55763   179.29601     0.22074     0.00000   282.87811   282.87811
     2      546.05011      225.14011    -3     3    -3   0.10915   0.19522   0.00818   8.45268   0.10446  89.19019       42700.00      146447.16     1.75833     2.06228   178.56772     0.20775     0.00000   746.64984   746.64984
     7     1026.44458      909.49371    -5     3    -1  -0.28073   0.25276   0.01396  14.49294   0.09197  55.43463         449.00        1369.15     1.17522     1.51603     3.02186     0.06511     0.00000    62.01849    62.01849
     6      924.97107      682.99426    -6     4    -2   0.11816   0.04480   0.00552  16.08252   0.07268  64.06245       41171.00      108231.15     1.71121     1.77716    14.70478     0.25607     0.00000   925.34869   925.34869
    36       61.83894      407.69217    -1     3    -3   0.21900   0.29688   0.01228   7.85969   0.12446  78.64901           0.00           0.00     0.00000     0.00000     0.00000     0.00000     0.00000     0.00000     0.00000
     4      426.63168      666.11188    -3     5    -3   0.45223  -0.12925   0.02496  14.35942   0.08292  62.75159       57484.00      193314.16     1.81134     1.87316    13.61085     0.22862     0.00000   546.38251   546.38251
    14      648.66724      500.22189    -6     6    -4   0.16745   0.01932   0.00873  18.19104   0.05795  72.04463       13309.00       23416.15     1.21786     1.44691     4.64704     0.18640     0.00000   258.91705   258.91705
     8      668.66711      570.49799    -5     5    -3   0.10988  -0.03658   0.00593  15.64146   0.07079  68.09230       38928.00      186298.16     1.90545     2.83446   175.27348     0.30707     0.00000   426.84985   426.84985
    11      868.10870      257.28287    -5     3    -3   0.07750   0.22083   0.00746  10.82854   0.08280  87.48664       20873.00       59584.15     1.66676     1.99789    32.32947     0.21306     0.00000   868.38019   868.38019
    10      331.59241      270.35287    -4     6    -6  -0.49504  -0.02800   0.02238  15.68219   0.05785  86.21136       53636.00       80255.15     1.08481     1.54153     0.08124     0.19162     0.00000   668.99939   668.99939
     9      282.61230      288.47086    -3     5    -5  -0.41978  -0.03575   0.01866  12.97636   0.07065  85.10121       22076.00       46256.15     1.08999     1.86860     0.04462     0.19462     0.00000   649.00555   649.00555
    19      258.61481      619.59399    -3     7    -5  -0.05058  -0.39088   0.01071  19.09063   0.05964  65.98099       19691.00       38731.15     1.24231     1.68103     7.05823     0.23260     0.00000   129.71005   129.71005
    17      858.88281      567.50446    -7     5    -3   0.16160  -0.27133   0.01090  18.24897   0.05968  69.39223        8182.00       20228.15     1.08766     1.94725   179.95728     0.29962     0.00000   464.01462   464.01462
    31      475.01480      454.83673    -6     8    -6   0.02843   0.05344   0.00221  21.96809   0.04659  74.55633         523.00        2279.15     1.26859     2.02280     0.67364     0.10175     0.00000   698.99530   698.99530
    20      463.66965      498.16388    -5     7    -5   0.35867  -0.13485   0.01915  19.31471   0.05462  71.98227       13710.00       27773.15     1.17311     1.72851   177.62123     0.21772     0.00000   439.07822   439.07822
    22      721.85071      228.63850    -8     6    -6   0.06277   0.02645   0.00293  18.98009   0.04655  89.11493       23168.00       34085.15     1.16278     1.27620   178.91292     0.19224     0.00000   753.87518   753.87518
    15      129.38647       39.61915    -3     5    -7  -0.21454   0.23206   0.01023  13.61993   0.05948  99.85687       13810.00       31191.15     1.51017     1.63231    73.57530     0.22039     0.00000   859.20892   859.20892
    18      438.70135       20.96701    -6     6    -8   0.43354   0.30866   0.01984  17.13935   0.04649 102.16024        9350.00       18597.15     1.22967     1.52582   177.71114     0.21267     0.00000   722.14709   722.14709
    30     1012.70251      601.56915    -9     5    -3   0.02144  -0.16803   0.00438  21.60170   0.05069  68.96030        5153.00        9120.15     1.12073     1.34404   178.87367     0.15376     0.00000   262.00943   262.00943
    16      753.59180      232.69235    -7     5    -5  -0.31835   0.20124   0.01537  16.22785   0.05456  88.87474         956.00        3293.15     1.49938     1.76282   178.81841     0.11167     0.00000   475.06223   475.06223
    21      145.60970      355.20306    -3     7    -7  -0.04511  -0.03949   0.00224  18.13747   0.05245  81.32961        1289.00        3520.15     1.36224     1.59689   172.67854     0.10631     0.00000  1013.01312  1013.01312
    23      364.75735      259.68329    -5     7    -7  -0.04268  -0.08227   0.00329  18.42364   0.04893  86.88877        7289.00       18750.15     1.25228     1.89501   179.33405     0.17432     0.00000   145.92149   145.92149
    29      784.13898       52.58471   -10     6    -8  -0.04058  -0.12950   0.00432  21.07601   0.03835 100.15133        3948.00       11297.15     1.46917     1.85574    83.12812     0.20628     0.00000   823.14832   823.14832
    32      300.68756       93.01702    -6     8   -10  -0.07056  -0.00782   0.00283  21.53306   0.03834  97.34175        2828.00        5905.15     1.08019     1.52856   179.95358     0.14793     0.00000   455.00284   455.00284
    24      919.92841      273.28156    -9     5    -5   0.11287  -0.07099   0.00501  19.04876   0.04744  86.63188        9877.00       16678.15     1.19470     1.31400     0.90824     0.18700     0.00000   365.09262   365.09262
    26       27.57450      162.42975    -3     7    -9   0.32198   0.04070   0.01087  18.66312   0.04597  92.52860         846.00        2700.15     1.12652     1.81078   179.08945     0.10944     0.00000   301.02380   301.02380
    25      822.86847       31.38368    -9     5    -7   0.18698  -0.13969   0.00797  18.39842   0.04356 101.32977         877.00        3776.15     1.50310     1.84466   166.38869     0.14008     0.00000   784.09058   784.09058
    27      261.68088       78.66324    -5     7    -9  -0.06865  -0.04983   0.00303  18.84889   0.04354  98.10690        3547.00       11437.15     1.65517     1.85143    17.20639     0.18877     0.00000   920.16675   920.16675
    34      698.74847      226.34694    -9     7    -7   0.05251  -0.10455   0.00410  21.74923   0.04058  89.25028         522.00        2764.24     1.23885     2.33164     5.66252     0.52932     0.00000   615.84363   615.84363
    28      454.66653       47.77827    -7     7    -9   0.00871   0.00924   0.00046  19.88919   0.04053 100.54025        4002.00        9878.15     1.39111     1.71437   169.52722     0.16832     0.00000    27.91370    27.91370
    33      971.53864       85.57789   -11     5    -7  -0.33159  -0.31146   0.01497  21.19116   0.03885  97.70786         639.00        2486.15     1.41598     1.70653    18.07663     0.11180     0.00000   971.97467   971.97467
latticeparameters=   0.54323   0.54486   0.54093  89.94849  90.19477  90.25790
dpsx, dpsy: 179.00000 168.38699
dd, xcent, ycent:      150.57201      540.60303      212.87601
pitch,yaw,roll:  -0.22645   0.61642   0.00000
dev1, dev2, pixdev:   0.01228   0.01210   0.25591
deviatoric strain in crystal reference u1 u2 u3 (*10^3)
   0.42677  -2.25825  -1.69323
  -2.25825   3.40699   0.44017
  -1.69323   0.44017  -3.82056
deviatoric strain in sample reference X Y Z (*10^3)
  -0.26929  -0.85437   0.47798
  -0.85437   4.64730   0.18589
   0.47798   0.18589  -4.36481
deviatoric principal strains (*10^3):   4.79272  -0.35071  -4.42880
deviatoric strain principal axes in sample reference:
  -0.16537   0.98617   0.01139
   0.97884   0.16271   0.12409
  -0.12052  -0.03167   0.99221
deviatoric stress in crystal reference u1 u2 u3 (MPa)
       44.24626     -359.10770     -269.25769
     -359.10770      347.33517       69.99611
     -269.25769       69.99611     -387.70734
deviatoric stress in sample reference X Y Z (MPa)
      -38.53596     -198.65395      -29.27918
     -198.65395      569.63989       22.84984
      -29.27918       22.84984     -527.22980
deviatoric principal stresses (MPa):      629.56927      -96.59911     -529.09601
deviatoric stress principal axes in sample reference:
       -0.28596        0.95788        0.02616
       -0.95665       -0.28695        0.04982
        0.05523       -0.01078        0.99842
total strain in sample reference X Y Z (*10^3)
   1.52694  -0.85437   0.47798
  -0.85437   6.44353   0.18589
   0.47798   0.18589  -2.56858
total principal strains (*10^3):   6.58895   1.44552  -2.63257
total strain principal axes in sample reference:
  -0.16537   0.98617   0.01139
   0.97884   0.16271   0.12409
  -0.12052  -0.03167   0.99221
total stress in crystal reference u1 u2 u3 (MPa)
      571.47607     -359.10770     -269.25769
     -359.10770      874.56500       69.99611
     -269.25769       69.99611      139.52246
total stress in sample reference X Y Z (MPa)
      488.69385     -198.65395      -29.27918
     -198.65395     1096.86963       22.84984
      -29.27918       22.84984        0.00000
total principal stresses (MPa):     1156.79895      430.63071       -1.86621
total stress principal axes in sample reference:
       -0.28596        0.95788        0.02616
       -0.95665       -0.28695        0.04982
        0.05523       -0.01078        0.99842
dilatational strain (*10^-3):        1.79623
hydrostatic stress (MPa):      528.52118
Von Mises stress (MPa):     1014.12012
equivalent strain (*10^-3):        5.33588
equivalent stress (MPa):     1014.12012
maximum resolved shear stress:       14.86904
coordinates of a, b, c in X, Y, Z
   0.44440  -0.20243   0.23851
   0.19252   0.50580   0.06499
  -0.24574   0.03225   0.48106
coordinates of a*, b*, c* in X, Y, Z
   1.50605  -0.67793   0.81480
   0.65601   1.70065   0.22109
  -0.83531   0.10637   1.64666
