SiHyperlaueFinal_00107.tif
number of grains found:       1
grain no:       0     grainlist file index:       1
number of indexed reflections:      32
       x(exp)          y(exp)      h     k     l   ang_dev. xdev(pix) ydev(pix) Ener(keV) 2theta(deg)   chi(deg)intensity  integr    xwidth(pix) ywidth(pix)  tilt(deg)    rfact       pearson  xcentr(pix) ycentr(pix)   strfac  theor_integr  fit_intensity    fit_integr    fit_backg    harm   lin_abs
      392.63947      871.99115    -2     4    -2   0.03994   0.32893  -1.74816  12.47265  53.28533   9.14793   81795.0  157340.8     1.15233     1.86045     1.86922     0.17727     0.00000   392.91632   872.34143            1.7         2167.3        72422.0       175926.1           96.3     1       41.52473
      746.38708      951.27783    -3     3    -1   0.05452  -0.71008  -2.02548  11.61896  50.72000 -13.73418   29556.0   94285.8     1.68837     2.04043   178.56499     0.21106     0.00000   746.68372   951.64459            1.3         1392.1        28646.1       111820.4           96.3     1       51.31261
      991.68646      299.61606    -4     2    -2   0.00715  -0.11056   0.19757   8.25872  85.25504 -27.26547   24035.0   37683.8     1.24608     1.24645    89.35326     0.18484     0.00000   992.03137   299.98700            1.7         1048.5        20812.9        36628.2           96.3     2      140.78929
      546.07324      225.15196    -3     3    -3   0.02098   0.28147   0.49888   8.44860  89.20211  -0.36586   39375.0  138326.8     1.82881     1.87617    22.51329     0.22500     0.00000   546.37903   225.46075            1.2         2623.6        41989.9       163248.8           96.3     4      131.72672
     1026.46423      909.49109    -5     3    -1   0.07061  -1.41435  -2.09382  14.51848  55.44856 -29.42565   32896.0   82194.8     1.67995     1.78586    74.05495     0.21450     0.00000  1026.77698   909.83301            1.0          745.2        26896.7        91434.2           96.3     1       26.36481
      924.99835      682.99017    -6     4    -2   0.03125  -0.56125  -0.80455  16.10793  64.06389 -23.98007   33865.0   89212.8     1.69221     1.82540    72.85614     0.25347     0.00000   925.35272   683.36365            1.2          663.3        28303.1        99062.7           96.3     1       19.32701
      426.64825      666.11444    -3     5    -3   0.05361   0.93790  -0.66403  14.38026  62.74599   7.10091   30130.0  147749.8     1.90635     2.91594   175.62138     0.30941     0.00000   426.88303   666.53656            0.9          465.6        28262.0       178011.2           96.3     1       27.13018
      648.66699      500.21048    -6     6    -4   0.01175   0.22557   0.02017  18.21067  72.04593  -7.22942   19124.0   40748.8     1.08949     1.87727     0.00000     0.19103     0.00000   649.00952   500.78189            0.8          282.7        18946.0        43906.9           96.3     1       13.41357
      668.66687      570.49542    -5     5    -3   0.00951   0.11105  -0.26451  15.66398  68.08997  -8.56359   44978.0   67359.8     1.08476     1.53921   179.99535     0.19127     0.00000   669.00311   570.83173            0.8          273.4        38966.9        73721.4           96.3     1       21.00941
      868.13788      257.27313    -5     3    -3   0.01666  -0.01945   0.54499  10.82615  87.50065 -20.50169   12865.0   38496.8     1.74686     1.93756   114.61151     0.19964     0.00000   868.35846   257.68982            0.9          258.7        11907.1        45665.0           96.3     1       63.33257
      331.59543      270.36316    -4     6    -6   0.01261  -0.23238   0.22704  15.67306  86.20879  13.36387   25330.0   53178.8     1.26793     1.74297   178.71236     0.23213     0.00000   331.85956   270.78320            0.8          212.8        21871.8        54769.0           96.3     1       20.97307
      282.61642      288.48193    -3     5    -5   0.00933  -0.15406   0.20941  12.96823  85.09794  16.34145   30437.0   51524.8     1.21322     1.53531   179.42793     0.21163     0.00000   282.90005   288.79834            0.8          186.5        25905.2        54675.0           96.3     1       36.95951
      258.62289      619.59375    -3     7    -5   0.03433   0.61494  -0.69124  19.10757  65.96022  17.58716   11896.0   20832.8     1.19860     1.44697     3.44998     0.18025     0.00000   258.93723   619.98981            0.6          184.2        10093.4        19835.3           96.3     1       11.63409
      858.89789      567.49634    -7     5    -3   0.01912  -0.25635  -0.57446  18.27605  69.37696 -20.18871   11792.0   27380.8     1.49966     1.68089    41.40034     0.21660     0.00000   859.19989   567.92346            0.6          165.8         9946.8        28410.5           96.3     1       13.27177
      475.08942      454.82623    -6     8    -6   0.01593   0.28927   0.16865  21.98093  74.56018   4.10555     809.0    2994.8     1.49424     1.82096   177.73450     0.10405     0.00000   475.06384   455.08316            0.6          138.5          652.1         2010.5           96.3     1        7.71556
      463.67007      498.14291    -5     7    -5   0.03822   0.72683  -0.10321  19.33159  71.97589   4.81819    7507.0   18129.8     1.09085     1.94253   179.94739     0.29924     0.00000   464.01535   498.36612            0.6          118.9         7338.5        17620.2           96.3     1       11.24046
      721.87262      228.63420    -8     6    -6   0.01286   0.11611   0.36692  18.97581  89.11686 -11.68435    8092.0   16701.8     1.23671     1.56650   177.95474     0.20940     0.00000   722.15094   229.11241            0.6          107.6         6808.0        14944.5           96.3     1       11.87445
      129.38947       39.62795    -3     5    -7   0.02635  -0.73660   0.19917  13.59063  99.87070  25.19357   15733.0   30286.8     1.21812     1.67680     6.29190     0.21599     0.00000   129.72395    39.93872            0.6          107.3        13364.3        30930.3           96.3     1       32.12431
      438.70172       20.95447    -6     6    -8   0.02255   0.49240   0.35137  17.11042 102.17914   6.75186   12041.0   24185.8     1.17495     1.70978   177.56989     0.21317     0.00000   439.08115    21.31852            0.6          103.6        10329.8        23513.5           96.3     1       16.14302
     1012.69885      601.53918    -9     5    -3   0.03270  -0.70977  -0.66687  21.62829  68.95314 -28.53635    1147.0    3204.8     1.31516     1.60136   173.06483     0.10719     0.00000  1013.01544   602.03174            0.5          103.4          875.9         2090.2           96.3     1        8.08712
      753.59387      232.69005    -7     5    -5   0.02083  -0.27254   0.53872  16.22300  88.88796 -13.65898   19902.0   29142.8     1.15494     1.26975   179.25906     0.18672     0.00000   753.89087   233.10478            0.6           86.7        17368.6        28860.5           96.3     1       18.92074
      145.61223      355.19998    -3     7    -7   0.01090   0.21059   0.21097  18.12349  81.32734  24.16684    6392.0   16629.8     1.24408     1.90140   179.33638     0.16902     0.00000   145.94250   355.83487            0.5           85.7         6193.4        16600.3           96.3     1       13.60589
      364.76199      259.68597    -5     7    -7   0.01149   0.21297   0.18770  18.41406  86.88335  11.30322    8637.0   14667.8     1.19674     1.32429     0.66862     0.17834     0.00000   365.11008   260.12006            0.5           64.0         7390.6        13271.7           96.3     1       12.97907
      784.16309       52.50615   -10     6    -8   0.00766   0.15628   0.14415  21.05395 100.14808 -15.39890     778.0    3635.8     1.65284     1.94949   101.10155     0.13186     0.00000   784.10107    53.11528            0.5           61.2          612.4         2235.8           96.3     1        8.74769
      300.68402       93.01519    -6     8   -10   0.00485  -0.08285   0.11189  21.50106  97.34156  15.36362     747.0    2410.8     1.13830     1.83302   176.25276     0.10006     0.00000   301.02417    93.10427            0.5           61.1          565.3         1336.5           96.3     1        8.22732
      919.93988      273.25146    -9     5    -5   0.00767  -0.02644   0.25385  19.04811  86.62923 -23.42213    3109.0   10329.8     1.67083     1.87956    19.48520     0.17843     0.00000   920.14203   273.97672            0.4           58.4         2725.5         9698.3           96.3     1       11.74171
       27.58393      162.44887    -3     7    -9   0.00929  -0.17881   0.24810  18.62894  92.52923  30.33554    3571.0    8876.8     1.36873     1.70870   169.69051     0.16636     0.00000    27.93338   162.96719            0.4           50.8         2875.6         7620.2           96.3     1       12.54059
      822.87921       31.35985    -9     5    -7   0.01658   0.43783   0.04565  18.37787 101.32338 -17.70462    3405.0   10198.8     1.50670     1.88045    53.60356     0.20023     0.00000   823.12469    32.06004            0.4           42.9         2680.4         8604.9           96.3     1       13.05496
      261.68082       78.66345    -5     7    -9   0.00682  -0.17321   0.03144  18.81855  98.10408  17.71072    4735.0    8255.8     1.12415     1.35509   177.15498     0.14021     0.00000   262.01865    79.08983            0.4           42.7         4045.2         6982.3           96.3     1       12.17029
      698.73364      226.37787    -9     7    -7   0.00975   0.16163   0.20034  21.74593  89.24151 -10.22627     465.0    1963.8     1.21788     2.03150     5.39775     0.09523     0.00000   699.01123   227.05069            0.4           36.7          321.6          901.7           96.3     1        7.96045
      454.66608       47.76903    -7     7    -9   0.00558   0.10590   0.11184  19.86104 100.54139   5.70463    2417.0    5316.8     1.08549     1.53558   179.27893     0.14409     0.00000   455.00873    48.18608            0.4           35.2         1984.4         3747.9           96.3     1       10.38006
      971.50934       85.54803   -11     5    -7   0.00295  -0.07820  -0.03517  21.17394  97.69079 -26.07119     604.0    2456.8     1.49029     1.64485    22.46617     0.11140     0.00000   971.97650    86.07954            0.3           31.5          432.9         1202.5           96.3     1        8.60365
 dev1, dev2, pixdev=    0.0324100    0.0260500    0.0204500
matrix X  Y  Z -> h  k  l
   0.44379  -0.20020   0.24046
   0.19304   0.50360   0.06302
  -0.24625   0.03398   0.48276
matrix h  k  l -> X  Y  Z
   1.50513   0.65470  -0.83518
  -0.67900   1.70800   0.11524
   0.81555   0.21374   1.63730
Number of missing reflections:      11
x(exp)   y(exp)   h  k  l   energy(keV)   theta(deg)    strfac    theor_integr
      546.35474      225.65083    -4     4    -4  11.26803  89.16973        1.26000      452.52301
      546.35474      225.65083    -5     5    -5  14.08504  89.16973        0.67400      129.38400
      991.57593      299.81363    -8     4    -4  16.51927  85.24333        0.79700      189.47099
      546.35474      225.65083    -7     7    -7  19.71905  89.16973        0.41100       48.06600
      200.37796      748.61749    -2     6    -4  17.06929  60.06881        1.15300      765.55103
       62.29225      408.24936    -1     3    -3   7.85416  78.63352        1.28600      552.77698
        1.70611       14.91406    -2     4    -6  11.10777 100.55495        1.15300      363.42300
        7.12885      891.69397    -1     7    -5  21.00883  56.14927        0.67400      304.38000
      204.77399      323.67050    -4     8    -8  20.66554  83.04969        0.58900      107.12800
      634.55255      454.13931    -7     7    -5  20.85714  74.75627        0.46800       79.91400
      616.95410       49.10340    -9     7    -9  21.55711 100.58143        0.32400       28.72500
Rfactor:      0.56230003
Rotangle(deg):       35.22524
Rodrigues vector:       -0.01472        0.24667        0.19930       35.22524
Quaternion:        0.95312       -0.01403        0.23511        0.18995
Euler angles:        4.02622       24.39440       23.50805
orsnr, orsirxy, orsirxz, orsiryz:  27.24520 -24.28115 -27.02588   4.02622
 Rotation matrix, unit cell to sample:
   0.81728   0.35550  -0.45350
  -0.36869   0.92744   0.06258
   0.44284   0.11606   0.88906
 Rotation matrix, sample to unit cell:
   0.81728  -0.36869   0.44284
   0.35550   0.92744   0.11606
  -0.45350   0.06258   0.88906
Sum of integrated intensities:  1096400.62500
Average integrated intensity per peak:    36546.68750
scale:    0.0100400
depth:    -0.837680
Unindexed reflections:       0
Xstage position:      6000.00
Ystage position:      10240.0
X map position:     107
Y map position:       1
Izero:       2638.0000
Channel A:      0.00000000
Channel B:      0.00000000
Channel C:      0.00000000
Channel D:      0.00000000
Channel E:      0.00000000
Exposure:      2.50000
Average intensity of the image :       105.59253
Average background of the image:       103.72553
