\\vmware-host\Shared Folders\Desktop\SiHyperlaueFinal_shielded_results\results_00015.STR
Number of grains:       1
Grain no:       1   Grainlist file index:       1    Number of peaks:      33
no   x(exp)  y(exp)  h  k  l xdev  ydev  angdev  energy  dspace  twotheta  intens   integr  xwidth   ywidth  tilt  rfactor   pearson  xcentroid  ycentroid
     2      392.61853      871.98145    -2     4    -2  -0.33157  -0.09754   0.01918  12.44805   0.11105  53.29139       75158.00      262395.88     1.81611     2.06747   177.98849     0.21639     0.00000   746.60223   746.60223
     4      746.28168      951.30695    -3     3    -1  -0.32723   0.53130   0.02126  11.59402   0.12490  50.69523      108233.00      351851.88     1.78078     1.87293     2.09205     0.23280     0.00000   546.37079   546.37079
    13      991.65717      299.61948    -4     2    -2   0.11711  -0.02314   0.00451   8.25880   0.11084  85.25642       60121.00      104034.86     1.23605     1.55527   178.99541     0.23274     0.00000   282.86813   282.86813
     3      546.01807      225.15186    -3     3    -3   0.12849   0.19792   0.00884   8.45287   0.10446  89.18924       50919.00       75718.86     1.23386     1.23619    78.17905     0.18100     0.00000   991.98181   991.98181
     6     1026.40894      909.55164    -5     3    -1  -0.28164   0.26627   0.01412  14.49388   0.09197  55.43137       49687.00      134198.86     1.63196     1.92575   101.68730     0.25137     0.00000   925.33185   925.33185
     7      924.96442      683.08099    -6     4    -2   0.09517   0.01019   0.00442  16.08333   0.07268  64.05963        2575.00        4387.86     1.14103     1.39176   179.42439     0.09379     0.00000    62.04388    62.04388
    29       61.78551      407.68399    -1     3    -3   0.25809   0.29264   0.01338   7.85981   0.12446  78.64977        4770.00       13340.86     1.47172     1.78393    86.54076     0.22132     0.00000   823.16315   823.16315
     5      426.60587      666.14093    -3     5    -3   0.45899  -0.13581   0.02534  14.36000   0.08292  62.75049       55114.00      144205.86     1.64822     1.87712   106.66340     0.19420     0.00000  1026.73010  1026.73010
    15      648.66699      500.26587    -6     6    -4   0.14748   0.00533   0.00768  18.19173   0.05795  72.04281       17578.00       36721.86     1.43313     1.56602    47.08845     0.22690     0.00000   859.19189   859.19189
    10      668.66675      570.52728    -5     5    -3   0.08833  -0.03168   0.00478  15.64213   0.07079  68.09031       70997.00      103246.86     1.08419     1.48511   179.99759     0.19348     0.00000   669.00085   669.00085
     8      868.06134      257.35428    -5     3    -3   0.10735   0.18042   0.00707  10.82881   0.08280  87.48472       57275.00      252876.86     1.89537     2.69815   175.28210     0.30565     0.00000   426.80600   426.80600
    12      331.58340      270.36581    -4     6    -6  -0.49816  -0.03753   0.02254  15.68251   0.05785  86.21114       37770.00       80209.86     1.29702     1.73628   178.01949     0.24930     0.00000   331.83899   331.83899
     9      282.60715      288.47144    -3     5    -5  -0.42693  -0.03558   0.01897  12.97662   0.07064  85.10117       27357.00       54672.86     1.08907     1.84406     0.00818     0.20046     0.00000   649.00677   649.00677
    19      258.60782      619.59412    -3     7    -5  -0.06014  -0.38378   0.01069  19.09119   0.05964  65.98072       28323.00       55371.86     1.24206     1.68662     7.35856     0.24593     0.00000   129.68086   129.68086
    17      858.84619      567.54596    -7     5    -3   0.17251  -0.26973   0.01126  18.24975   0.05968  69.38971        9229.00       23451.86     1.08780     1.95142   179.88687     0.29964     0.00000   464.00879   464.00879
    32      474.97885      454.88040    -6     8    -6   0.04772   0.02801   0.00263  21.96880   0.04659  74.55523        3199.00        6803.86     1.08148     1.50389     1.21254     0.16711     0.00000   455.02512   455.02512
    20      463.66922      498.18613    -5     7    -5   0.34187  -0.13804   0.01831  19.31536   0.05462  71.98116       16342.00       33456.86     1.17324     1.74908   177.72629     0.22389     0.00000   439.08994   439.08994
    22      721.82532      228.65027    -8     6    -6   0.07342   0.03800   0.00350  18.98053   0.04655  89.11342       28548.00       43187.86     1.18332     1.30239   177.38451     0.20778     0.00000   753.85614   753.85614
    14      129.38193       39.61878    -3     5    -7  -0.21899   0.21545   0.01003  13.62008   0.05948  99.85780       15311.00       27357.86     1.23562     1.46312     5.35800     0.19474     0.00000   258.90790   258.90790
    18      438.70065       20.98471    -6     6    -8   0.42738   0.29266   0.01939  17.13959   0.04649 102.16012       11381.00       21489.86     1.21494     1.46940   179.17998     0.21390     0.00000   722.16315   722.16315
    31     1012.68237      601.60706    -9     5    -3   0.01179  -0.15483   0.00395  21.60265   0.05069  68.95745         571.00        2438.86     1.20796     1.95110     0.36233     0.11240     0.00000   699.00903   699.00903
    16      753.58167      232.70200    -7     5    -5  -0.32346   0.21653   0.01578  16.22823   0.05456  88.87314        1021.00        3545.86     1.61695     1.73373   165.20396     0.11830     0.00000   475.05878   475.05878
    21      145.60477      355.18460    -3     7    -7  -0.05349  -0.02816   0.00239  18.13778   0.05245  81.33006        1419.00        3811.86     1.31697     1.49921   169.04013     0.11955     0.00000  1012.99493  1012.99493
    23      364.74567      259.68823    -5     7    -7  -0.04308  -0.08203   0.00330  18.42403   0.04893  86.88844        8236.00       21782.86     1.26136     1.89540   179.05096     0.18597     0.00000   145.91693   145.91693
    30      784.11505       52.57940   -10     6    -8  -0.02620  -0.10366   0.00336  21.07634   0.03835 100.15010        6014.00       10420.86     1.11727     1.36985   177.62923     0.15636     0.00000   262.01520   262.01520
    34      300.67935       92.97991    -6     8   -10  -0.07101   0.02528   0.00297  21.53337   0.03834  97.34197         522.00        2764.24     1.23885     2.33164     5.66252     0.52932     0.00000   615.84363   615.84363
    25      919.89954      273.35037    -9     5    -5   0.12300  -0.10598   0.00588  19.04924   0.04744  86.62983        1023.00        4103.86     1.50118     1.84086   169.16284     0.14050     0.00000   784.09442   784.09442
    26       27.57834      162.41290    -3     7    -9   0.30600   0.03730   0.01033  18.66333   0.04597  92.52972         897.00        2633.86     1.12965     1.77964   176.87964     0.10514     0.00000   301.02072   301.02072
    24      822.86493       31.43158    -9     5    -7   0.18149  -0.16588   0.00821  18.39869   0.04356 101.32850       11758.00       18971.86     1.19935     1.28471     1.24916     0.18319     0.00000   365.09741   365.09741
    27      261.67850       78.66927    -5     7    -9  -0.07479  -0.06280   0.00343  18.84915   0.04354  98.10729        4531.00       13284.86     1.61014     1.78841    19.36695     0.20264     0.00000   920.15295   920.15295
    35      698.72278      226.33211    -9     7    -7   0.06382  -0.06757   0.00359  21.74973   0.04058  89.24884           0.00           0.00     0.00000     0.00000     0.00000     0.00000     0.00000     0.00000     0.00000
    28      454.66483       47.76505    -7     7    -9   0.00282   0.02598   0.00082  19.88948   0.04053 100.54002        4687.00       11505.86     1.37933     1.74736   170.56349     0.17836     0.00000    27.90003    27.90003
    33      971.54919       85.61175   -11     5    -7  -0.35451  -0.31498   0.01568  21.19151   0.03885  97.70614         752.00        2852.86     1.36409     1.49523    17.91934     0.12897     0.00000   971.96075   971.96075
latticeparameters=   0.54325   0.54484   0.54093  89.94962  90.19382  90.25763
dpsx, dpsy: 179.00000 168.38699
dd, xcent, ycent:      150.57201      540.60303      212.87601
pitch,yaw,roll:  -0.22645   0.61642   0.00000
dev1, dev2, pixdev:   0.01230   0.01207   0.25407
deviatoric strain in crystal reference u1 u2 u3 (*10^3)
   0.45124  -2.25588  -1.68492
  -2.25588   3.38296   0.43042
  -1.68492   0.43042  -3.82107
deviatoric strain in sample reference X Y Z (*10^3)
  -0.25773  -0.86243   0.48827
  -0.86243   4.62711   0.16921
   0.48827   0.16921  -4.35625
deviatoric principal strains (*10^3):   4.77569  -0.34081  -4.42174
deviatoric strain principal axes in sample reference:
  -0.16800   0.98574   0.00928
   0.97814   0.16552   0.12591
  -0.12258  -0.03023   0.99200
deviatoric stress in crystal reference u1 u2 u3 (MPa)
       46.73068     -358.73080     -267.93610
     -358.73080      344.88681       68.44588
     -267.93610       68.44588     -387.76352
deviatoric stress in sample reference X Y Z (MPa)
      -37.46952     -199.06168      -28.09277
     -199.06168      567.41595       20.59476
      -28.09277       20.59476     -526.09253
deviatoric principal stresses (MPa):      627.71637      -96.07705     -527.78534
deviatoric stress principal axes in sample reference:
       -0.28755        0.95746        0.02409
       -0.95627       -0.28841        0.04866
        0.05354       -0.00905        0.99852
total strain in sample reference X Y Z (*10^3)
   1.53463  -0.86243   0.48827
  -0.86243   6.41947   0.16921
   0.48827   0.16921  -2.56389
total principal strains (*10^3):   6.56804   1.45154  -2.62939
total strain principal axes in sample reference:
  -0.16800   0.98574   0.00928
   0.97814   0.16552   0.12591
  -0.12258  -0.03023   0.99200
total stress in crystal reference u1 u2 u3 (MPa)
      572.82318     -358.73080     -267.93610
     -358.73080      870.97931       68.44588
     -267.93610       68.44588      138.32899
total stress in sample reference X Y Z (MPa)
      488.62299     -199.06168      -28.09277
     -199.06168     1093.50854       20.59476
      -28.09277       20.59476        0.00000
total principal stresses (MPa):     1153.80884      430.01547       -1.69283
total stress principal axes in sample reference:
       -0.28755        0.95746        0.02409
       -0.95627       -0.28841        0.04866
        0.05354       -0.00905        0.99852
dilatational strain (*10^-3):        1.79236
hydrostatic stress (MPa):      527.37714
Von Mises stress (MPa):     1011.29449
equivalent strain (*10^-3):        5.32134
equivalent stress (MPa):     1011.29449
maximum resolved shear stress:       15.70710
coordinates of a, b, c in X, Y, Z
   0.44442  -0.20245   0.23851
   0.19254   0.50579   0.06497
  -0.24573   0.03226   0.48109
coordinates of a*, b*, c* in X, Y, Z
   1.50607  -0.67797   0.81473
   0.65609   1.70072   0.22108
  -0.83527   0.10643   1.64673
