\\vmware-host\Shared Folders\Desktop\SiHyperlaueFinal_shielded_results\results_00066.STR
Number of grains:       1
Grain no:       1   Grainlist file index:       1    Number of peaks:      33
no   x(exp)  y(exp)  h  k  l xdev  ydev  angdev  energy  dspace  twotheta  intens   integr  xwidth   ywidth  tilt  rfactor   pearson  xcentroid  ycentroid
     2      392.62845      871.97235    -2     4    -2  -0.32720  -0.10933   0.01897  12.44747   0.11105  53.29219       42907.00      151144.17     1.78173     2.08152   178.60916     0.20652     0.00000   746.64166   746.64166
     5      746.31781      951.25208    -3     3    -1  -0.33467   0.54274   0.02174  11.59325   0.12490  50.69711       42035.00      108984.17     1.69378     1.83801   134.61333     0.20093     0.00000  1026.76245  1026.76245
    13      991.67682      299.62006    -4     2    -2   0.11198  -0.06057   0.00463   8.25861   0.11084  85.25859       39541.00       68830.17     1.23016     1.56782   179.26663     0.22255     0.00000   282.88007   282.88007
     3      546.04498      225.14931    -3     3    -3   0.10739   0.18508   0.00787   8.45276   0.10446  89.19025       30685.00       47253.17     1.23556     1.24328   164.40413     0.18468     0.00000   992.02435   992.02435
     7     1026.44092      909.50208    -5     3    -1  -0.27421   0.26588   0.01381  14.49300   0.09197  55.43384         448.00        1412.17     1.16528     1.44171   177.30328     0.07015     0.00000    62.00543    62.00543
     6      925.00995      683.04272    -6     4    -2   0.07887   0.00549   0.00367  16.08252   0.07268  64.06200       40709.00      109670.17     1.70723     1.88592    63.83527     0.24225     0.00000   925.35199   925.35199
    36       61.80502      407.68942    -1     3    -3   0.24731   0.29544   0.01310   7.85979   0.12446  78.64927           0.00           0.00     0.00000     0.00000     0.00000     0.00000     0.00000     0.00000     0.00000
     4      426.62872      666.11285    -3     5    -3   0.44910  -0.12878   0.02478  14.35942   0.08292  62.75154       58195.00      196448.17     1.80641     1.87602    10.08945     0.22866     0.00000   546.37836   546.37836
    14      648.66718      500.22583    -6     6    -4   0.16297   0.01640   0.00849  18.19104   0.05795  72.04456       13457.00       23793.17     1.21582     1.46100     4.28045     0.18642     0.00000   258.92020   258.92020
     8      668.66724      570.50348    -5     5    -3   0.10588  -0.03955   0.00574  15.64145   0.07079  68.09214       39660.00      188854.17     1.90510     2.82103   175.34943     0.30562     0.00000   426.84543   426.84543
    11      868.09882      257.29794    -5     3    -3   0.08087   0.20595   0.00712  10.82860   0.08280  87.48662       21367.00       60306.17     1.78942     1.85432   147.04291     0.21793     0.00000   868.37488   868.37488
    10      331.59140      270.35901    -4     6    -6  -0.50063  -0.03586   0.02264  15.68237   0.05785  86.21147       54914.00       81901.17     1.08501     1.52725     0.09231     0.19365     0.00000   669.00244   669.00244
     9      282.60968      288.46518    -3     5    -5  -0.42363  -0.03208   0.01882  12.97652   0.07065  85.10134       22414.00       46772.17     1.08951     1.86672   179.97331     0.19508     0.00000   649.00580   649.00580
    19      258.61600      619.59216    -3     7    -5  -0.05906  -0.39052   0.01084  19.09069   0.05964  65.98111       19511.00       38562.17     1.24075     1.69569     6.92803     0.23101     0.00000   129.70453   129.70453
    17      858.87177      567.51367    -7     5    -3   0.17043  -0.27590   0.01130  18.24896   0.05968  69.39196        8214.00       20475.17     1.08840     1.94561     0.07460     0.30201     0.00000   464.00815   464.00815
    31      474.99026      454.83273    -6     8    -6   0.04687   0.05651   0.00300  21.96816   0.04659  74.55639         492.00        2175.17     1.27471     2.01446     5.67729     0.10194     0.00000   698.99872   698.99872
    20      463.66925      498.16431    -5     7    -5   0.35301  -0.13592   0.01887  19.31475   0.05462  71.98231       13920.00       28181.17     1.17478     1.73075   177.49669     0.21626     0.00000   439.06674   439.06674
    22      721.85132      228.63843    -8     6    -6   0.05535   0.02608   0.00261  18.98021   0.04655  89.11495       23545.00       34871.17     1.16436     1.28033   179.05476     0.19524     0.00000   753.86603   753.86603
    15      129.37662       39.61911    -3     5    -7  -0.20786   0.23327   0.01008  13.62026   0.05948  99.85678       14406.00       31915.17     1.47453     1.62116    29.00731     0.22525     0.00000   859.20154   859.20154
    18      438.70074       20.96877    -6     6    -8   0.42673   0.30843   0.01960  17.13967   0.04649 102.16013        9465.00       18947.17     1.23540     1.52756   177.11646     0.21538     0.00000   722.15131   722.15131
    30     1012.69269      601.56549    -9     5    -3   0.03036  -0.15713   0.00425  21.60172   0.05069  68.95992        5319.00        9362.17     1.12026     1.36166   178.71761     0.15231     0.00000   262.01254   262.01254
    16      753.58966      232.69266    -7     5    -5  -0.32296   0.20060   0.01555  16.22795   0.05456  88.87475         984.00        3191.17     1.53102     1.73803   172.96434     0.10915     0.00000   475.05161   475.05161
    21      145.60953      355.20032    -3     7    -7  -0.05093  -0.03990   0.00245  18.13770   0.05245  81.32981        1326.00        3509.17     1.30588     1.56798   174.13994     0.10693     0.00000  1013.00507  1013.00507
    23      364.75858      259.68268    -5     7    -7  -0.05058  -0.08322   0.00354  18.42385   0.04893  86.88887        7403.00       19247.17     1.25228     1.89462   179.26942     0.17860     0.00000   145.91849   145.91849
    29      784.16150       52.52698   -10     6    -8  -0.07277  -0.07077   0.00364  21.07627   0.03835 100.15129        4125.00       11402.17     1.35704     1.55174     0.00000     0.23411     0.00000   823.13696   823.13696
    32      300.68478       93.03047    -6     8   -10  -0.07385  -0.02101   0.00302  21.53346   0.03834  97.34172        2932.00        6234.17     1.08112     1.49738   178.40182     0.15845     0.00000   454.98007   454.98007
    24      919.93024      273.28259    -9     5    -5   0.10467  -0.07153   0.00472  19.04885   0.04744  86.63184        9930.00       16613.17     1.19713     1.31547     1.78493     0.18291     0.00000   365.11603   365.11603
    26       27.58164      162.42226    -3     7    -9   0.31237   0.04649   0.01057  18.66353   0.04597  92.52869         804.00        2666.17     1.11623     1.83303   179.23482     0.11021     0.00000   300.99072   300.99072
    25      822.77490       31.47064    -9     5    -7   0.27016  -0.22531   0.01187  18.39865   0.04356 101.32972         825.00        3782.17     1.65415     1.87674    84.81694     0.13743     0.00000   784.05475   784.05475
    27      261.68042       78.66456    -5     7    -9  -0.07378  -0.05065   0.00321  18.84927   0.04354  98.10685        3629.00       11756.17     1.65814     1.85016    19.47410     0.19368     0.00000   920.14185   920.14185
    35      698.71429      226.33109    -9     7    -7   0.07986  -0.08921   0.00458  21.74938   0.04058  89.25030           0.00           0.00     0.00000     0.00000     0.00000     0.00000     0.00000     0.00000     0.00000
    28      454.66592       47.75708    -7     7    -9   0.00186   0.03146   0.00099  19.88953   0.04053 100.54017        4091.00       10257.17     1.37411     1.73403   170.48830     0.17620     0.00000    27.91945    27.91945
    33      971.55365       85.54214   -11     5    -7  -0.35733  -0.27474   0.01507  21.19136   0.03885  97.70783         614.00        2571.17     1.32449     1.79043    12.83173     0.12271     0.00000   971.98102   971.98102
latticeparameters=   0.54324   0.54487   0.54091  89.94778  90.19554  90.25913
dpsx, dpsy: 179.00000 168.38699
dd, xcent, ycent:      150.57201      540.60303      212.87601
pitch,yaw,roll:  -0.22645   0.61642   0.00000
dev1, dev2, pixdev:   0.01238   0.01214   0.25757
deviatoric strain in crystal reference u1 u2 u3 (*10^3)
   0.43456  -2.26911  -1.69988
  -2.26911   3.43037   0.44629
  -1.69988   0.44629  -3.85153
deviatoric strain in sample reference X Y Z (*10^3)
  -0.27081  -0.85886   0.48948
  -0.85886   4.67676   0.18923
   0.48948   0.18923  -4.39254
deviatoric principal strains (*10^3):   4.82281  -0.35031  -4.45911
deviatoric strain principal axes in sample reference:
  -0.16518   0.98620   0.01148
   0.97863   0.16245   0.12611
  -0.12250  -0.03206   0.99195
deviatoric stress in crystal reference u1 u2 u3 (MPa)
       45.05204     -360.83420     -270.31464
     -360.83420      349.72549       70.96938
     -270.31464       70.96938     -390.84406
deviatoric stress in sample reference X Y Z (MPa)
      -38.87514     -199.71716      -28.38314
     -199.71716      573.13184       23.38165
      -28.38314       23.38165     -530.32324
deviatoric principal stresses (MPa):      633.33917      -97.31115     -532.09460
deviatoric stress principal axes in sample reference:
       -0.28572        0.95795        0.02622
       -0.95686       -0.28668        0.04724
        0.05277       -0.01159        0.99854
total strain in sample reference X Y Z (*10^3)
   1.53596  -0.85886   0.48948
  -0.85886   6.48353   0.18923
   0.48948   0.18923  -2.58577
total principal strains (*10^3):   6.62958   1.45646  -2.65234
total strain principal axes in sample reference:
  -0.16518   0.98620   0.01148
   0.97863   0.16245   0.12611
  -0.12250  -0.03206   0.99195
total stress in crystal reference u1 u2 u3 (MPa)
      575.37531     -360.83420     -270.31464
     -360.83420      880.04877       70.96938
     -270.31464       70.96938      139.47919
total stress in sample reference X Y Z (MPa)
      491.44809     -199.71716      -28.38314
     -199.71716     1103.45508       23.38165
      -28.38314       23.38165        0.00000
total principal stresses (MPa):     1163.66248      433.01208       -1.77133
total stress principal axes in sample reference:
       -0.28572        0.95795        0.02622
       -0.95686       -0.28668        0.04724
        0.05277       -0.01159        0.99854
dilatational strain (*10^-3):        1.80677
hydrostatic stress (MPa):      531.63440
Von Mises stress (MPa):     1020.07904
equivalent strain (*10^-3):        5.37065
equivalent stress (MPa):     1020.07904
maximum resolved shear stress:       15.05602
coordinates of a, b, c in X, Y, Z
   0.44441  -0.20244   0.23850
   0.19252   0.50582   0.06500
  -0.24574   0.03224   0.48105
coordinates of a*, b*, c* in X, Y, Z
   1.50606  -0.67793   0.81478
   0.65602   1.70061   0.22113
  -0.83532   0.10631   1.64674
