\\vmware-host\Shared Folders\Desktop\SiHyperlaueFinal_shielded_results\results_00016.STR
Number of grains:       1
Grain no:       1   Grainlist file index:       1    Number of peaks:      33
no   x(exp)  y(exp)  h  k  l xdev  ydev  angdev  energy  dspace  twotheta  intens   integr  xwidth   ywidth  tilt  rfactor   pearson  xcentroid  ycentroid
     2      392.61920      871.97992    -2     4    -2  -0.33279  -0.10890   0.01929  12.44815   0.11104  53.29193       75382.00      263393.03     1.81596     2.06787     0.00000     0.21815     0.00000   746.60138   746.60138
     4      746.28381      951.31134    -3     3    -1  -0.32914   0.52205   0.02127  11.59408   0.12490  50.69541      109129.00      353032.03     1.78051     1.87122     0.51833     0.23333     0.00000   546.37164   546.37164
    13      991.65747      299.62109    -4     2    -2   0.11967  -0.01968   0.00459   8.25884   0.11084  85.25614       60149.00      104092.05     1.23926     1.55557   179.02759     0.23210     0.00000   282.86099   282.86099
     3      546.01868      225.14885    -3     3    -3   0.12662   0.20275   0.00889   8.45297   0.10446  89.18912       50855.00       75422.05     1.23059     1.23243   100.26615     0.18156     0.00000   991.98004   991.98004
     6     1026.41467      909.55219    -5     3    -1  -0.28355   0.27316   0.01427  14.49399   0.09197  55.43114       49254.00      133044.05     1.62475     1.93482   102.12622     0.25213     0.00000   925.33221   925.33221
     7      924.96686      683.07800    -6     4    -2   0.09481   0.01669   0.00440  16.08344   0.07268  64.05948        2533.00        4483.04     1.14825     1.42876     0.15503     0.09777     0.00000    62.04726    62.04726
    29       61.79860      407.68576    -1     3    -3   0.24726   0.28887   0.01298   7.85995   0.12446  78.64987        4819.00       13031.04     1.47456     1.78806    57.54545     0.21621     0.00000   823.15765   823.15765
     5      426.60544      666.13678    -3     5    -3   0.45861  -0.13795   0.02532  14.36016   0.08292  62.75081       55071.00      143333.05     1.66038     1.85917   106.59764     0.19672     0.00000  1026.73425  1026.73425
    15      648.66736      500.26428    -6     6    -4   0.14641   0.00619   0.00762  18.19190   0.05795  72.04285       17403.00       36625.04     1.43725     1.57594    50.33559     0.22634     0.00000   859.19745   859.19745
    10      668.66681      570.52765    -5     5    -3   0.08773  -0.03339   0.00476  15.64227   0.07079  68.09038       71359.00      103789.05     1.08372     1.48471   179.97639     0.19434     0.00000   668.99969   668.99969
     8      868.06158      257.35477    -5     3    -3   0.10812   0.18341   0.00716  10.82888   0.08280  87.48451       57065.00      253789.05     1.89622     2.70025   175.46490     0.30460     0.00000   426.80698   426.80698
    12      331.58240      270.36578    -4     6    -6  -0.49789  -0.03643   0.02252  15.68276   0.05785  86.21108       37420.00       79836.05     1.29944     1.73741   178.11469     0.25031     0.00000   331.83841   331.83841
     9      282.60596      288.47086    -3     5    -5  -0.42611  -0.03423   0.01894  12.97683   0.07064  85.10112       27296.00       54399.04     1.08928     1.84345   179.98853     0.19967     0.00000   649.00531   649.00531
    19      258.60837      619.59229    -3     7    -5  -0.06059  -0.38852   0.01082  19.09146   0.05964  65.98106       28305.00       55750.04     1.24285     1.69182     7.22494     0.24768     0.00000   129.68742   129.68742
    17      858.84955      567.54309    -7     5    -3   0.17028  -0.26467   0.01108  18.24988   0.05968  69.38960        9125.00       23222.04     1.08424     1.95031   179.90587     0.30211     0.00000   464.00488   464.00488
    32      474.95801      454.83807    -6     8    -6   0.06749   0.06878   0.00411  21.96907   0.04659  74.55533        3070.00        6809.04     1.08170     1.57554     1.15174     0.16895     0.00000   454.99060   454.99060
    20      463.66885      498.18668    -5     7    -5   0.34122  -0.14097   0.01829  19.31560   0.05462  71.98130       16452.00       33657.04     1.17515     1.74815   177.60182     0.22386     0.00000   439.08661   439.08661
    22      721.82324      228.64842    -8     6    -6   0.07502   0.04227   0.00362  18.98069   0.04655  89.11327       28552.00       43120.04     1.18103     1.30335   177.35922     0.20819     0.00000   753.86420   753.86420
    14      129.37836       39.61813    -3     5    -7  -0.21450   0.22133   0.01002  13.62032   0.05948  99.85750       15416.00       27407.04     1.23575     1.46046     5.36721     0.19317     0.00000   258.90768   258.90768
    18      438.70123       20.98333    -6     6    -8   0.42536   0.29823   0.01940  17.13981   0.04649 102.15986       11211.00       21395.04     1.21161     1.46782   179.33566     0.21870     0.00000   722.16632   722.16632
    31     1012.69006      601.60754    -9     5    -3   0.00752  -0.14932   0.00378  21.60280   0.05069  68.95718         599.00        2493.04     1.21716     1.95639     6.02013     0.11111     0.00000   699.01788   699.01788
    16      753.58069      232.70160    -7     5    -5  -0.32271   0.21951   0.01579  16.22836   0.05456  88.87298        1106.00        3480.04     1.53118     1.72139   171.45650     0.11202     0.00000   475.05389   475.05389
    21      145.60695      355.18878    -3     7    -7  -0.05461  -0.03296   0.00249  18.13811   0.05245  81.33010        1433.00        3601.04     1.29137     1.49666   172.02122     0.10893     0.00000  1013.00311  1013.00311
    23      364.75204      259.68915    -5     7    -7  -0.05037  -0.08170   0.00350  18.42431   0.04893  86.88836        8374.00       22044.04     1.25287     1.89855   178.98051     0.18646     0.00000   145.91158   145.91158
    30      784.10999       52.58893   -10     6    -8  -0.02126  -0.10943   0.00347  21.07648   0.03835 100.14987        6295.00       10689.04     1.11702     1.34086   176.73421     0.15615     0.00000   262.01492   262.01492
    33      300.68283       92.98048    -6     8   -10  -0.07521   0.02847   0.00316  21.53371   0.03834  97.34174         738.00        2668.04     1.39077     1.50752    21.40690     0.11814     0.00000   971.98724   971.98724
    24      919.89709      273.35779    -9     5    -5   0.12717  -0.10934   0.00607  19.04935   0.04744  86.62959       11688.00       19099.04     1.20329     1.29714     1.04579     0.18548     0.00000   365.10486   365.10486
    26       27.57305      162.41537    -3     7    -9   0.31383   0.03815   0.01059  18.66369   0.04597  92.52953         929.00        2697.04     1.12502     1.78982   177.12686     0.10543     0.00000   300.98770   300.98770
    25      822.86401       31.42432    -9     5    -7   0.18267  -0.15461   0.00806  18.39880   0.04356 101.32826        1048.00        4289.04     1.50827     1.81404   165.17265     0.15367     0.00000   784.08044   784.08044
    27      261.67822       78.65759    -5     7    -9  -0.07494  -0.04702   0.00320  18.84945   0.04354  98.10704        4528.00       13139.04     1.60686     1.77783    20.23160     0.20258     0.00000   920.15125   920.15125
    35      698.71991      226.39928    -9     7    -7   0.06604  -0.13244   0.00518  21.74992   0.04058  89.24869           0.00           0.00     0.00000     0.00000     0.00000     0.00000     0.00000     0.00000     0.00000
    28      454.66492       47.78223    -7     7    -9   0.00129   0.01264   0.00040  19.88973   0.04053 100.53977        4569.00       11460.04     1.38946     1.74316   169.47731     0.18220     0.00000    27.91494    27.91494
    34      971.55835       85.61499   -11     5    -7  -0.36134  -0.31340   0.01585  21.19160   0.03885  97.70586         522.00        2764.24     1.23885     2.33164     5.66252     0.52932     0.00000   615.84363   615.84363
latticeparameters=   0.54325   0.54484   0.54093  89.94825  90.19297  90.25765
dpsx, dpsy: 179.00000 168.38699
dd, xcent, ycent:      150.57201      540.60303      212.87601
pitch,yaw,roll:  -0.22645   0.61642   0.00000
dev1, dev2, pixdev:   0.01234   0.01211   0.25716
deviatoric strain in crystal reference u1 u2 u3 (*10^3)
   0.45894  -2.25603  -1.67754
  -2.25603   3.37535   0.44233
  -1.67754   0.44233  -3.82119
deviatoric strain in sample reference X Y Z (*10^3)
  -0.26293  -0.87058   0.49776
  -0.87058   4.62268   0.17470
   0.49776   0.17470  -4.34664
deviatoric principal strains (*10^3):   4.77402  -0.34580  -4.41511
deviatoric strain principal axes in sample reference:
  -0.16938   0.98550   0.00963
   0.97754   0.16675   0.12890
  -0.12543  -0.03125   0.99161
deviatoric stress in crystal reference u1 u2 u3 (MPa)
       47.51245     -358.75336     -266.76218
     -358.75336      344.11160       70.33936
     -266.76218       70.33936     -387.77646
deviatoric stress in sample reference X Y Z (MPa)
      -38.53392     -200.07739      -26.72542
     -200.07739      567.02167       21.58674
      -26.72542       21.58674     -524.64014
deviatoric principal stresses (MPa):      627.85468      -97.79074     -526.21631
deviatoric stress principal axes in sample reference:
       -0.28838        0.95720        0.02462
       -0.95619       -0.28924        0.04524
        0.05042       -0.01049        0.99867
total strain in sample reference X Y Z (*10^3)
   1.52448  -0.87058   0.49776
  -0.87058   6.41009   0.17470
   0.49776   0.17470  -2.55923
total principal strains (*10^3):   6.56143   1.44161  -2.62770
total strain principal axes in sample reference:
  -0.16938   0.98550   0.00963
   0.97754   0.16675   0.12890
  -0.12543  -0.03125   0.99161
total stress in crystal reference u1 u2 u3 (MPa)
      572.15259     -358.75336     -266.76218
     -358.75336      868.75177       70.33936
     -266.76218       70.33936      136.86369
total stress in sample reference X Y Z (MPa)
      486.10623     -200.07739      -26.72542
     -200.07739     1091.66187       21.58674
      -26.72542       21.58674        0.00000
total principal stresses (MPa):     1152.49487      426.84940       -1.57616
total stress principal axes in sample reference:
       -0.28838        0.95720        0.02462
       -0.95619       -0.28924        0.04524
        0.05042       -0.01049        0.99867
dilatational strain (*10^-3):        1.78741
hydrostatic stress (MPa):      525.92267
Von Mises stress (MPa):     1010.44287
equivalent strain (*10^-3):        5.31689
equivalent stress (MPa):     1010.44287
maximum resolved shear stress:       16.63497
coordinates of a, b, c in X, Y, Z
   0.44443  -0.20245   0.23851
   0.19253   0.50580   0.06497
  -0.24572   0.03226   0.48109
coordinates of a*, b*, c* in X, Y, Z
   1.50608  -0.67796   0.81471
   0.65610   1.70075   0.22105
  -0.83529   0.10642   1.64674
