\\vmware-host\Shared Folders\Desktop\SiHyperlaueFinal_shielded_results\results_00098.STR
Number of grains:       1
Grain no:       1   Grainlist file index:       1    Number of peaks:      32
no   x(exp)  y(exp)  h  k  l xdev  ydev  angdev  energy  dspace  twotheta  intens   integr  xwidth   ywidth  tilt  rfactor   pearson  xcentroid  ycentroid
     2      392.63724      871.97693    -2     4    -2  -0.29919  -0.11099   0.01739  12.44991   0.11103  53.29191       30672.00      100863.09     1.71405     2.05305   178.56982     0.21006     0.00000   746.67487   746.67487
     5      746.37030      951.26617    -3     3    -1  -0.37845   0.52014   0.02373  11.59471   0.12489  50.69750       34262.00       86258.09     1.58391     1.90578   105.65789     0.18032     0.00000  1026.77917  1026.77917
    14      991.68365      299.62067    -4     2    -2   0.13329  -0.10185   0.00591   8.25879   0.11083  85.26101       12214.00       28046.09     1.49451     1.66812    37.28640     0.21859     0.00000   859.20117   859.20117
     4      546.06360      225.14784    -3     3    -3   0.08940   0.19352   0.00759   8.45369   0.10445  89.18979       41418.00      142844.09     1.82101     1.87569    14.41728     0.22525     0.00000   546.37817   546.37817
     7     1026.45703      909.49158    -5     3    -1  -0.26563   0.26431   0.01344  14.49386   0.09196  55.43464       31145.00      151851.09     1.90399     2.88970   175.65086     0.30777     0.00000   426.87561   426.87561
     6      925.01093      683.00647    -6     4    -2   0.09326   0.02779   0.00434  16.08361   0.07267  64.06283       35237.00       92602.09     1.64291     1.91260   152.31697     0.24121     0.00000   925.35327   925.35327
     3      426.64178      666.10956    -3     5    -3   0.46240  -0.10760   0.02547  14.36207   0.08291  62.75054       24976.00       38928.09     1.23519     1.24931   168.87721     0.18324     0.00000   992.03851   992.03851
    12      648.66669      500.21420    -6     6    -4   0.16914   0.03354   0.00885  18.19326   0.05794  72.04425       30853.00       53063.09     1.21810     1.55547   179.44679     0.21520     0.00000   282.89047   282.89047
     8      668.66693      570.49591    -5     5    -3   0.11262  -0.02756   0.00603  15.64339   0.07078  68.09192       19706.00       41787.09     1.09008     1.87453     0.00843     0.18944     0.00000   649.00836   649.00836
    13      868.12177      257.28076    -5     3    -3   0.06968   0.19239   0.00654  10.82905   0.08279  87.48852       12423.00       21848.09     1.20554     1.45064     3.83763     0.18381     0.00000   258.92770   258.92770
     9      331.59161      270.36282    -4     6    -6  -0.48233  -0.01066   0.02178  15.68478   0.05784  86.20963       46401.00       69357.09     1.08445     1.53756   179.90128     0.19134     0.00000   669.00250   669.00250
    10      282.61420      288.47116    -3     5    -5  -0.40277  -0.00576   0.01785  12.97862   0.07064  85.09930       13569.00       39626.09     1.79863     1.87071   115.55145     0.20252     0.00000   868.33899   868.33899
    19      258.61963      619.59381    -3     7    -5  -0.01400  -0.37066   0.00976  19.09452   0.05963  65.97967       12306.00       24771.09     1.17576     1.71047   177.69695     0.21392     0.00000   439.08505   439.08505
    17      858.89221      567.49994    -7     5    -3   0.16050  -0.27464   0.01092  18.25032   0.05967  69.39271        8164.00       16791.09     1.24088     1.54539   178.52655     0.21197     0.00000   722.14587   722.14587
    31      475.03067      454.82022    -6     8    -6   0.02054   0.08918   0.00293  21.97159   0.04658  74.55516        2596.00        5574.09     1.07714     1.45904   179.01717     0.15295     0.00000   454.99222   454.99222
    20      463.67004      498.14597    -5     7    -5   0.36890  -0.09680   0.01951  19.31790   0.05461  71.98107        1175.00        3251.09     1.31942     1.56772   171.41722     0.10697     0.00000  1013.00946  1013.00946
    22      721.86481      228.63364    -8     6    -6   0.04293   0.01623   0.00199  18.98156   0.04655  89.11589        6697.00       17381.09     1.24042     1.89864   179.28702     0.17369     0.00000   145.91840   145.91840
    15      129.38068       39.62443    -3     5    -7  -0.19135   0.26665   0.01038  13.62214   0.05947  99.85467         901.00        2946.09     1.48808     1.80785   175.40202     0.09716     0.00000   475.04858   475.04858
    18      438.70233       20.95752    -6     6    -8   0.41837   0.32530   0.01956  17.14137   0.04648 102.15977       15898.00       31095.09     1.22764     1.68904     6.42825     0.21981     0.00000   129.72331   129.72331
    30     1012.71277      601.55817    -9     5    -3   0.03683  -0.17104   0.00469  21.60263   0.05069  68.96124         490.00        2098.09     1.28318     1.95801     5.09487     0.09961     0.00000   699.02216   699.02216
    16      753.59302      232.69023    -7     5    -5  -0.32376   0.18468   0.01539  16.22900   0.05456  88.87592        7717.00       18634.09     1.08964     1.94270   179.94366     0.29876     0.00000   464.01651   464.01651
    21      145.61319      355.20245    -3     7    -7  -0.00445  -0.00590   0.00026  18.14099   0.05244  81.32755       20538.00       29971.09     1.15626     1.27276   178.99107     0.18495     0.00000   753.88477   753.88477
    23      364.75955      259.68506    -5     7    -7  -0.03717  -0.05932   0.00256  18.42657   0.04893  86.88719        8787.00       14893.09     1.20386     1.31975     2.82094     0.17619     0.00000   365.08005   365.08005
    29      784.08923       52.54677   -10     6    -8   0.00212  -0.13113   0.00399  21.07707   0.03835 100.15376        4881.00        8523.09     1.11727     1.32525   178.59454     0.14895     0.00000   262.02197   262.02197
    32      300.67960       92.99206    -6     8   -10  -0.06085   0.04347   0.00281  21.53626   0.03833  97.34012         602.00        2487.09     1.46120     1.65227    13.93345     0.11431     0.00000   971.98651   971.98651
    24      919.93103      273.27240    -9     5    -5   0.12170  -0.09676   0.00569  19.04947   0.04744  86.63399         852.00        3677.09     1.65842     1.84422    84.62455     0.13281     0.00000   784.07562   784.07562
    26       27.57522      162.44521    -3     7    -9   0.36834   0.06889   0.01251  18.66653   0.04597  92.52623        3269.00       10710.09     1.66002     1.86372    17.20042     0.18174     0.00000   920.15094   920.15094
    25      822.88867       31.34947    -9     5    -7   0.16295  -0.15336   0.00744  18.39917   0.04356 101.33264         817.00        2602.09     1.11011     1.83535   176.76994     0.10676     0.00000   300.99332   300.99332
    27      261.68005       78.66701    -5     7    -9  -0.06324  -0.02407   0.00254  18.85176   0.04354  98.10512        3709.00        9123.09     1.38287     1.69477   168.82300     0.16747     0.00000    27.93348    27.93348
    35      698.72809      226.33086    -9     7    -7   0.06630  -0.10081   0.00439  21.75103   0.04057  89.25106           0.00           0.00     0.00000     0.00000     0.00000     0.00000     0.00000     0.00000     0.00000
    28      454.66711       47.74738    -7     7    -9  -0.00489   0.04706   0.00149  19.89152   0.04052 100.53979        3533.00       10420.09     1.49164     1.91464    76.36259     0.19330     0.00000   823.14691   823.14691
    33      971.53149       85.51543   -11     5    -7  -0.30669  -0.31140   0.01429  21.19153   0.03885  97.71140         610.00        2434.22     1.36405     1.79847    16.01220     0.11308     0.00000   971.97046   971.97046
latticeparameters=   0.54330   0.54479   0.54093  89.94630  90.19070  90.25713
dpsx, dpsy: 179.00000 168.38699
dd, xcent, ycent:      150.57201      540.60303      212.87601
pitch,yaw,roll:  -0.22645   0.61642   0.00000
dev1, dev2, pixdev:   0.01220   0.01202   0.24975
deviatoric strain in crystal reference u1 u2 u3 (*10^3)
   0.54874  -2.25124  -1.65785
  -2.25124   3.28697   0.45938
  -1.65785   0.45938  -3.82284
deviatoric strain in sample reference X Y Z (*10^3)
  -0.23151  -0.92735   0.54321
  -0.92735   4.55672   0.15946
   0.54321   0.15946  -4.31234
deviatoric principal strains (*10^3):   4.73041  -0.32528  -4.39226
deviatoric strain principal axes in sample reference:
  -0.18304   0.98309   0.00634
   0.97360   0.18037   0.13986
  -0.13635  -0.03177   0.99015
deviatoric stress in crystal reference u1 u2 u3 (MPa)
       56.62979     -357.99283     -263.63089
     -357.99283      335.10715       73.04987
     -263.63089       73.04987     -387.96036
deviatoric stress in sample reference X Y Z (MPa)
      -36.30182     -205.84535      -21.16940
     -205.84535      560.13226       20.57695
      -21.16940       20.57695     -520.05389
deviatoric principal stresses (MPa):      624.86456      -99.97457     -521.11334
deviatoric stress principal axes in sample reference:
       -0.29785        0.95434        0.02266
       -0.95383       -0.29848        0.03345
        0.03868       -0.01165        0.99918
total strain in sample reference X Y Z (*10^3)
   1.54027  -0.92735   0.54321
  -0.92735   6.32850   0.15946
   0.54321   0.15946  -2.54056
total principal strains (*10^3):   6.50219   1.44650  -2.62048
total strain principal axes in sample reference:
  -0.18304   0.98309   0.00634
   0.97360   0.18037   0.13986
  -0.13635  -0.03177   0.99015
total stress in crystal reference u1 u2 u3 (MPa)
      576.68365     -357.99283     -263.63089
     -357.99283      855.16101       73.04987
     -263.63089       73.04987      132.09352
total stress in sample reference X Y Z (MPa)
      483.75204     -205.84535      -21.16940
     -205.84535     1080.18616       20.57695
      -21.16940       20.57695        0.00000
total principal stresses (MPa):     1144.91846      420.07928       -1.05949
total stress principal axes in sample reference:
       -0.29785        0.95434        0.02266
       -0.95383       -0.29848        0.03345
        0.03868       -0.01165        0.99918
dilatational strain (*10^-3):        1.77178
hydrostatic stress (MPa):      521.31274
Von Mises stress (MPa):     1003.99579
equivalent strain (*10^-3):        5.27728
equivalent stress (MPa):     1003.99579
maximum resolved shear stress:       23.84083
coordinates of a, b, c in X, Y, Z
   0.44453  -0.20241   0.23859
   0.19246   0.50583   0.06496
  -0.24575   0.03226   0.48113
coordinates of a*, b*, c* in X, Y, Z
   1.50617  -0.67771   0.81476
   0.65598   1.70116   0.22098
  -0.83546   0.10639   1.64684
