\\vmware-host\Shared Folders\Desktop\SiHyperlaueFinal_shielded_results\results_00111.STR
Number of grains:       1
Grain no:       1   Grainlist file index:       1    Number of peaks:      32
no   x(exp)  y(exp)  h  k  l xdev  ydev  angdev  energy  dspace  twotheta  intens   integr  xwidth   ywidth  tilt  rfactor   pearson  xcentroid  ycentroid
     2      392.64011      872.00012    -2     4    -2  -0.29556  -0.11693   0.01721  12.44991   0.11103  53.29116       28932.00       91955.27     1.68595     2.03918   178.54163     0.21202     0.00000   746.68170   746.68170
     5      746.38885      951.28357    -3     3    -1  -0.39272   0.50545   0.02433  11.59469   0.12489  50.69743       32397.00       80878.27     1.57381     1.89640   129.88544     0.18923     0.00000  1026.77661  1026.77661
    14      991.68475      299.61865    -4     2    -2   0.13947  -0.10006   0.00609   8.25871   0.11083  85.26105       11876.00       27459.27     1.49993     1.67448    43.16267     0.21679     0.00000   859.20123   859.20123
     4      546.07318      225.16100    -3     3    -3   0.08687   0.18414   0.00727   8.45354   0.10445  89.18955       38743.00      137679.27     1.82779     1.87905    19.60097     0.22476     0.00000   546.37939   546.37939
     7     1026.45581      909.49432    -5     3    -1  -0.26277   0.25281   0.01322  14.49377   0.09196  55.43500       30006.00      145762.27     1.90551     2.91358   175.52249     0.30997     0.00000   426.88437   426.88437
     6      925.01385      683.00873    -6     4    -2   0.09428   0.02478   0.00438  16.08353   0.07267  64.06291       33563.00       88306.27     1.58996     1.97362   161.81866     0.25710     0.00000   925.34998   925.34998
     3      426.64795      666.11951    -3     5    -3   0.46265  -0.10503   0.02548  14.36198   0.08291  62.74988       24161.00       37782.27     1.23787     1.24428   159.05560     0.18611     0.00000   992.03833   992.03833
    12      648.66711      500.20313    -6     6    -4   0.17504   0.05065   0.00922  18.19312   0.05794  72.04391       30196.00       50855.27     1.21379     1.52392   179.36562     0.21212     0.00000   282.88995   282.88995
     8      668.66705      570.49249    -5     5    -3   0.11851  -0.01802   0.00631  15.64329   0.07078  68.09160       19124.00       40933.27     1.09008     1.87992     0.00000     0.18850     0.00000   649.01141   649.01141
    13      868.11945      257.29568    -5     3    -3   0.07964   0.17864   0.00637  10.82893   0.08279  87.48846       12296.00       21192.27     1.19616     1.42484     3.80493     0.17987     0.00000   258.92957   258.92957
     9      331.59592      270.36899    -4     6    -6  -0.48124  -0.01040   0.02173  15.68446   0.05784  86.20922       44378.00       66528.27     1.08458     1.54325   179.83383     0.19052     0.00000   669.00153   669.00153
    10      282.61545      288.48773    -3     5    -5  -0.39913  -0.01500   0.01770  12.97835   0.07064  85.09884       12806.00       38340.27     1.80514     1.85718    94.47880     0.20822     0.00000   868.34827   868.34827
    19      258.62415      619.59930    -3     7    -5  -0.01276  -0.36086   0.00949  19.09433   0.05963  65.97884       11923.00       24126.27     1.17274     1.71248   177.72737     0.21482     0.00000   439.07742   439.07742
    17      858.89648      567.49756    -7     5    -3   0.16135  -0.27037   0.01087  18.25022   0.05967  69.39265        8169.00       16705.27     1.23535     1.54861   178.56161     0.20625     0.00000   722.14551   722.14551
    31      475.06189      454.84479    -6     8    -6  -0.00418   0.07285   0.00222  21.97133   0.04659  74.55465        2519.00        5379.27     1.08060     1.51284   179.26402     0.14533     0.00000   455.01733   455.01733
    20      463.67059      498.15921    -5     7    -5   0.37481  -0.10096   0.01983  19.31770   0.05461  71.98052        1112.00        3144.26     1.36009     1.62149   170.32838     0.10242     0.00000  1013.00934  1013.00934
    21      721.86169      228.63770    -8     6    -6   0.05369   0.01457   0.00244  18.98130   0.04655  89.11574       20059.00       29124.27     1.15512     1.25575   179.16409     0.18518     0.00000   753.88055   753.88055
    15      129.39078       39.62782    -3     5    -7  -0.20120   0.26536   0.01059  13.62173   0.05947  99.85455         850.00        2998.26     1.52827     1.81911     1.59873     0.10197     0.00000   475.04922   475.04922
    18      438.70029       20.95558    -6     6    -8   0.42667   0.32722   0.01988  17.14093   0.04649 102.15978       15440.00       29989.27     1.22029     1.67610     6.39266     0.21953     0.00000   129.74092   129.74092
    30     1012.71228      601.53693    -9     5    -3   0.04135  -0.15190   0.00432  21.60251   0.05069  68.96139         489.00        2091.26     1.27201     2.04932     7.50528     0.09442     0.00000   699.00604   699.00604
    16      753.59924      232.68965    -7     5    -5  -0.32230   0.18741   0.01536  16.22878   0.05456  88.87579        7205.00       17768.27     1.09154     1.94883     0.07517     0.29936     0.00000   464.00937   464.00937
    22      145.61577      355.21567    -3     7    -7  -0.00385  -0.00840   0.00030  18.14060   0.05244  81.32692        6478.00       16384.27     1.23762     1.89192   179.33665     0.16638     0.00000   145.92601   145.92601
    23      364.76227      259.68604    -5     7    -7  -0.03417  -0.05441   0.00235  18.42619   0.04893  86.88682        8515.00       14550.26     1.20095     1.32437     0.67864     0.17950     0.00000   365.10486   365.10486
    29      784.13757       52.54479   -10     6    -8  -0.03687  -0.12994   0.00427  21.07670   0.03835 100.15378        4841.00        8495.26     1.11442     1.34186   177.00891     0.14927     0.00000   262.01871   262.01871
    32      300.68134       92.96794    -6     8   -10  -0.05825   0.07006   0.00322  21.53569   0.03833  97.33998         586.00        2411.26     1.36112     1.68305    22.26465     0.11672     0.00000   971.97052   971.97052
    25      919.94666      273.22989    -9     5    -5   0.11360  -0.05361   0.00483  19.04928   0.04744  86.63397         810.00        2457.26     1.13087     1.74019   176.34872     0.10197     0.00000   301.01651   301.01651
    26       27.57801      162.45357    -3     7    -9   0.36428   0.06745   0.01237  18.66599   0.04597  92.52584        2927.00        9960.26     1.68059     1.89086    19.27797     0.17446     0.00000   920.14545   920.14545
    24      822.88208       31.34462    -9     5    -7   0.17938  -0.14993   0.00788  18.39886   0.04356 101.33270         834.00        3521.26     1.63736     1.79809   140.80621     0.12928     0.00000   784.06024   784.06024
    27      261.67743       78.66523    -5     7    -9  -0.05706  -0.01996   0.00228  18.85124   0.04354  98.10499        3560.00        8701.26     1.38841     1.69033   169.18106     0.16196     0.00000    27.93418    27.93418
    34      698.72321      226.34724    -9     7    -7   0.07878  -0.11463   0.00510  21.75072   0.04057  89.25091         522.00        2764.24     1.23885     2.33164     5.66252     0.52932     0.00000   615.84363   615.84363
    28      454.66830       47.76481    -7     7    -9   0.00039   0.03022   0.00095  19.89103   0.04052 100.53977        3360.00        9978.26     1.51547     1.87688    38.38227     0.20062     0.00000   823.10699   823.10699
    33      971.56342       85.54644   -11     5    -7  -0.32851  -0.34408   0.01551  21.19124   0.03885  97.71147         610.00        2434.22     1.36405     1.79847    16.01220     0.11308     0.00000   971.97046   971.97046
latticeparameters=   0.54329   0.54478   0.54094  89.94793  90.19039  90.25655
dpsx, dpsy: 179.00000 168.38699
dd, xcent, ycent:      150.57201      540.60303      212.87601
pitch,yaw,roll:  -0.22645   0.61642   0.00000
dev1, dev2, pixdev:   0.01230   0.01211   0.24928
deviatoric strain in crystal reference u1 u2 u3 (*10^3)
   0.53728  -2.24619  -1.65515
  -2.24619   3.27650   0.44527
  -1.65515   0.44527  -3.80104
deviatoric strain in sample reference X Y Z (*10^3)
  -0.23058  -0.91850   0.52895
  -0.91850   4.54114   0.15029
   0.52895   0.15029  -4.29781
deviatoric principal strains (*10^3):   4.71213  -0.32582  -4.37357
deviatoric strain principal axes in sample reference:
  -0.18211   0.98326   0.00571
   0.97421   0.17964   0.13653
  -0.13322  -0.03043   0.99062
deviatoric stress in crystal reference u1 u2 u3 (MPa)
       55.45606     -357.18988     -263.20175
     -357.18988      334.03485       70.80726
     -263.20175       70.80726     -385.75070
deviatoric stress in sample reference X Y Z (MPa)
      -35.89975     -204.41147      -22.67231
     -204.41147      558.24860       19.02349
      -22.67231       19.02349     -518.60864
deviatoric principal stresses (MPa):      622.32440      -98.82323     -519.76099
deviatoric stress principal axes in sample reference:
       -0.29719        0.95457        0.02182
       -0.95386       -0.29784        0.03802
        0.04279       -0.00952        0.99904
total strain in sample reference X Y Z (*10^3)
   1.53628  -0.91850   0.52895
  -0.91850   6.30800   0.15029
   0.52895   0.15029  -2.53095
total principal strains (*10^3):   6.47898   1.44104  -2.60671
total strain principal axes in sample reference:
  -0.18211   0.98326   0.00571
   0.97421   0.17964   0.13653
  -0.13322  -0.03043   0.99062
total stress in crystal reference u1 u2 u3 (MPa)
      574.06470     -357.18988     -263.20175
     -357.18988      852.64349       70.80726
     -263.20175       70.80726      132.85793
total stress in sample reference X Y Z (MPa)
      482.70886     -204.41147      -22.67231
     -204.41147     1076.85718       19.02349
      -22.67231       19.02349        0.00000
total principal stresses (MPa):     1140.93311      419.78537       -1.15232
total stress principal axes in sample reference:
       -0.29719        0.95457        0.02182
       -0.95386       -0.29784        0.03802
        0.04279       -0.00952        0.99904
dilatational strain (*10^-3):        1.76686
hydrostatic stress (MPa):      519.85535
Von Mises stress (MPa):     1000.40027
equivalent strain (*10^-3):        5.25600
equivalent stress (MPa):     1000.40027
maximum resolved shear stress:       22.70633
coordinates of a, b, c in X, Y, Z
   0.44451  -0.20240   0.23859
   0.19246   0.50581   0.06495
  -0.24576   0.03226   0.48113
coordinates of a*, b*, c* in X, Y, Z
   1.50616  -0.67772   0.81478
   0.65596   1.70116   0.22099
  -0.83545   0.10644   1.64677
