\\vmware-host\Shared Folders\Desktop\SiHyperlaueFinal_shielded_results\results_00023.STR
Number of grains:       1
Grain no:       1   Grainlist file index:       1    Number of peaks:      33
no   x(exp)  y(exp)  h  k  l xdev  ydev  angdev  energy  dspace  twotheta  intens   integr  xwidth   ywidth  tilt  rfactor   pearson  xcentroid  ycentroid
     2      392.61987      871.98248    -2     4    -2  -0.33209  -0.10165   0.01922  12.44783   0.11105  53.29151       57184.00      199189.20     1.81280     2.06626   178.00346     0.21439     0.00000   746.60950   746.60950
     5      746.28577      951.30304    -3     3    -1  -0.32365   0.53066   0.02108  11.59378   0.12490  50.69546       48648.00      126075.20     1.66360     1.85329   105.56193     0.19747     0.00000  1026.74109  1026.74109
    13      991.66663      299.62814    -4     2    -2   0.10718  -0.03862   0.00424   8.25876   0.11084  85.25681       48562.00       84619.20     1.23648     1.56737   179.03807     0.22687     0.00000   282.87552   282.87552
     3      546.02289      225.15948    -3     3    -3   0.12216   0.18778   0.00839   8.45286   0.10446  89.18940       38782.00       58199.20     1.21663     1.24074   177.90131     0.17991     0.00000   992.00031   992.00031
     6     1026.42004      909.54779    -5     3    -1  -0.28161   0.26523   0.01411  14.49364   0.09197  55.43171       45498.00      121897.20     1.61900     1.93410   102.56527     0.24978     0.00000   925.32959   925.32959
     7      924.96588      683.07147    -6     4    -2   0.10088   0.01257   0.00468  16.08309   0.07268  64.06005        1012.00        2220.20     1.14920     1.38440     0.83708     0.07830     0.00000    62.01735    62.01735
    36       61.78107      407.68893    -1     3    -3   0.26123   0.28996   0.01343   7.85981   0.12446  78.64965           0.00           0.00     0.00000     0.00000     0.00000     0.00000     0.00000     0.00000     0.00000
     4      426.60831      666.14050    -3     5    -3   0.45725  -0.14014   0.02525  14.35978   0.08292  62.75073       78990.00      261083.20     1.78580     1.87536     2.70172     0.23093     0.00000   546.36975   546.36975
    14      648.66724      500.25800    -6     6    -4   0.14949   0.00675   0.00778  18.19150   0.05795  72.04319       14433.00       25780.20     1.22863     1.45944     5.18980     0.19335     0.00000   258.91382   258.91382
     8      668.66675      570.52228    -5     5    -3   0.09155  -0.03347   0.00496  15.64190   0.07079  68.09070       49209.00      217678.20     1.89622     2.71154   175.26314     0.30559     0.00000   426.81873   426.81873
     9      868.06439      257.34390    -5     3    -3   0.10342   0.18521   0.00709  10.82877   0.08280  87.48506       25417.00       51173.20     1.08984     1.84959   179.94814     0.19717     0.00000   649.00134   649.00134
    11      331.58432      270.36417    -4     6    -6  -0.50066  -0.03638   0.02265  15.68250   0.05785  86.21117       33355.00       88147.20     1.64142     1.92845   121.98475     0.22353     0.00000   868.37946   868.37946
    10      282.60727      288.46597    -3     5    -5  -0.42861  -0.03012   0.01904  12.97662   0.07064  85.10117       63869.00       93399.20     1.08401     1.49786   179.93791     0.19120     0.00000   669.00421   669.00421
    19      258.61105      619.59320    -3     7    -5  -0.06472  -0.38501   0.01081  19.09100   0.05964  65.98084       24055.00       47249.20     1.24348     1.68835     7.20284     0.24027     0.00000   129.70291   129.70291
    17      858.85577      567.54291    -7     5    -3   0.16789  -0.27406   0.01117  18.24952   0.05968  69.39015        8707.00       22133.20     1.08613     1.95243   179.96030     0.30160     0.00000   464.01089   464.01089
    31      474.96429      454.83514    -6     8    -6   0.06242   0.06864   0.00388  21.96858   0.04659  74.55551         543.00        2234.20     1.25772     2.00586     5.35821     0.09775     0.00000   698.99072   698.99072
    20      463.66812      498.17953    -5     7    -5   0.34328  -0.13624   0.01837  19.31515   0.05462  71.98144       15059.00       30600.20     1.17187     1.75220   177.76848     0.21488     0.00000   439.08090   439.08090
    22      721.82935      228.64627    -8     6    -6   0.06815   0.03782   0.00328  18.98048   0.04655  89.11369       25712.00       38750.20     1.18065     1.28850   178.76035     0.20513     0.00000   753.86267   753.86267
    15      129.38145       39.61783    -3     5    -7  -0.21853   0.22464   0.01019  13.62022   0.05948  99.85732       16281.00       34420.20     1.44168     1.57674    55.46524     0.22546     0.00000   859.18689   859.18689
    18      438.70001       20.98754    -6     6    -8   0.42462   0.29353   0.01931  17.13972   0.04649 102.15988       10339.00       19941.20     1.21483     1.47962   179.12518     0.21483     0.00000   722.15295   722.15295
    30     1012.69031      601.61151    -9     5    -3   0.01007  -0.16699   0.00424  21.60240   0.05069  68.95789        5812.00       10168.20     1.11193     1.36643   178.95464     0.15687     0.00000   262.01474   262.01474
    16      753.58630      232.70126    -7     5    -5  -0.32927   0.21279   0.01596  16.22819   0.05456  88.87342        1086.00        3335.20     1.54060     1.71222   170.67430     0.10684     0.00000   475.03665   475.03665
    21      145.60667      355.19971    -3     7    -7  -0.05682  -0.04190   0.00270  18.13779   0.05245  81.32999        1361.00        3528.20     1.34008     1.48573   167.83450     0.10747     0.00000  1013.00531  1013.00531
    23      364.74722      259.68701    -5     7    -7  -0.04622  -0.08161   0.00338  18.42402   0.04893  86.88849        7951.00       20763.20     1.25614     1.89579   179.13338     0.18371     0.00000   145.91521   145.91521
    29      784.09833       52.56741   -10     6    -8  -0.01471  -0.09270   0.00291  21.07643   0.03835 100.15017        4644.00       12734.20     1.45726     1.78309    77.40320     0.21966     0.00000   823.14136   823.14136
    32      300.68124       92.99438    -6     8   -10  -0.07492   0.01456   0.00305  21.53351   0.03834  97.34173        2975.00        6328.20     1.08198     1.50832   179.25589     0.15903     0.00000   454.98395   454.98395
    25      919.89960      273.34222    -9     5    -5   0.12222  -0.10392   0.00582  19.04918   0.04744  86.63019         997.00        4163.20     1.56120     1.81840   159.61095     0.14660     0.00000   784.08191   784.08191
    26       27.57037      162.43869    -3     7    -9   0.31473   0.01826   0.01059  18.66349   0.04597  92.52934         927.00        2774.20     1.12104     1.81029   177.10970     0.10675     0.00000   301.00830   301.00830
    24      822.85150       31.43221    -9     5    -7   0.18877  -0.16731   0.00845  18.39878   0.04356 101.32857       11002.00       18163.20     1.20087     1.28860     1.51588     0.18734     0.00000   365.09933   365.09933
    27      261.67627       78.66109    -5     7    -9  -0.07430  -0.04983   0.00322  18.84929   0.04354  98.10700        4198.00       12395.20     1.60983     1.79826    13.36871     0.19448     0.00000   920.14880   920.14880
    35      698.72455      226.33575    -9     7    -7   0.06076  -0.07517   0.00364  21.74968   0.04058  89.24909           0.00           0.00     0.00000     0.00000     0.00000     0.00000     0.00000     0.00000     0.00000
    28      454.66705       47.77019    -7     7    -9  -0.00265   0.02354   0.00075  19.88960   0.04053 100.53984        4488.00       11080.20     1.39581     1.70609   168.51070     0.18103     0.00000    27.90923    27.90923
    33      971.53400       85.59431   -11     5    -7  -0.34574  -0.30087   0.01518  21.19157   0.03885  97.70635         698.00        2615.20     1.40882     1.60058    14.15952     0.11631     0.00000   971.98523   971.98523
latticeparameters=   0.54324   0.54486   0.54092  89.94867  90.19466  90.25847
dpsx, dpsy: 179.00000 168.38699
dd, xcent, ycent:      150.57201      540.60303      212.87601
pitch,yaw,roll:  -0.22645   0.61642   0.00000
dev1, dev2, pixdev:   0.01233   0.01208   0.25534
deviatoric strain in crystal reference u1 u2 u3 (*10^3)
   0.44538  -2.26326  -1.69220
  -2.26326   3.40986   0.43856
  -1.69220   0.43856  -3.84195
deviatoric strain in sample reference X Y Z (*10^3)
  -0.26402  -0.86066   0.49210
  -0.86066   4.65555   0.17878
   0.49210   0.17878  -4.37823
deviatoric principal strains (*10^3):   4.80274  -0.34450  -4.44494
deviatoric strain principal axes in sample reference:
  -0.16649   0.98599   0.01028
   0.97832   0.16387   0.12662
  -0.12316  -0.03113   0.99190
deviatoric stress in crystal reference u1 u2 u3 (MPa)
       46.14589     -359.90302     -269.09409
     -359.90302      347.63333       69.74008
     -269.09409       69.74008     -389.87576
deviatoric stress in sample reference X Y Z (MPa)
      -38.18522     -199.41919      -27.91281
     -199.41919      570.67688       21.93718
      -27.91281       21.93718     -528.58820
deviatoric principal stresses (MPa):      630.90332      -96.71769     -530.28217
deviatoric stress principal axes in sample reference:
       -0.28650        0.95775        0.02502
       -0.95665       -0.28740        0.04723
        0.05243       -0.01040        0.99857
total strain in sample reference X Y Z (*10^3)
   1.53684  -0.86066   0.49210
  -0.86066   6.45641   0.17878
   0.49210   0.17878  -2.57737
total principal strains (*10^3):   6.60360   1.45636  -2.64409
total strain principal axes in sample reference:
  -0.16649   0.98599   0.01028
   0.97832   0.16387   0.12662
  -0.12316  -0.03113   0.99190
total stress in crystal reference u1 u2 u3 (MPa)
      574.73407     -359.90302     -269.09409
     -359.90302      876.22156       69.74008
     -269.09409       69.74008      138.71246
total stress in sample reference X Y Z (MPa)
      490.40298     -199.41919      -27.91281
     -199.41919     1099.26514       21.93718
      -27.91281       21.93718        0.00000
total principal stresses (MPa):     1159.49146      431.87054       -1.69395
total stress principal axes in sample reference:
       -0.28650        0.95775        0.02502
       -0.95665       -0.28740        0.04723
        0.05243       -0.01040        0.99857
dilatational strain (*10^-3):        1.80086
hydrostatic stress (MPa):      529.88934
Von Mises stress (MPa):     1016.30762
equivalent strain (*10^-3):        5.35054
equivalent stress (MPa):     1016.30762
maximum resolved shear stress:       15.35385
coordinates of a, b, c in X, Y, Z
   0.44442  -0.20245   0.23850
   0.19254   0.50581   0.06499
  -0.24573   0.03225   0.48107
coordinates of a*, b*, c* in X, Y, Z
   1.50606  -0.67797   0.81474
   0.65607   1.70066   0.22111
  -0.83529   0.10637   1.64675
