\\vmware-host\Shared Folders\Desktop\SiHyperlaueFinal_shielded_results\results_00087.STR
Number of grains:       1
Grain no:       1   Grainlist file index:       1    Number of peaks:      33
no   x(exp)  y(exp)  h  k  l xdev  ydev  angdev  energy  dspace  twotheta  intens   integr  xwidth   ywidth  tilt  rfactor   pearson  xcentroid  ycentroid
     2      392.63461      871.97247    -2     4    -2  -0.31561  -0.10192   0.01829  12.44776   0.11105  53.29180       42144.00      141402.33     1.73555     2.05458   178.61330     0.21034     0.00000   746.65839   746.65839
     5      746.35516      951.25543    -3     3    -1  -0.36107   0.54362   0.02306  11.59350   0.12490  50.69703       40770.00      103166.33     1.62068     1.89257   104.64313     0.18522     0.00000  1026.77075  1026.77075
    13      991.68054      299.61688    -4     2    -2   0.11709  -0.07164   0.00494   8.25857   0.11084  85.25943       39083.00       66918.33     1.21713     1.55613   179.33369     0.21991     0.00000   282.88571   282.88571
     3      546.05707      225.14037    -3     3    -3   0.10163   0.18895   0.00780   8.45276   0.10446  89.19058       29558.00       45691.33     1.24122     1.24418   121.86740     0.18494     0.00000   992.02466   992.02466
     7     1026.45422      909.49268    -5     3    -1  -0.27934   0.26918   0.01406  14.49312   0.09197  55.43418         449.00        1485.33     1.15838     1.56381     2.03231     0.07235     0.00000    62.00783    62.00783
     6      925.01245      683.02228    -6     4    -2   0.08483   0.02208   0.00394  16.08265   0.07268  64.06227       39706.00      104778.33     1.77873     1.80073   161.07817     0.25375     0.00000   925.34937   925.34937
    36       61.84606      407.68362    -1     3    -3   0.21842   0.30302   0.01239   7.85982   0.12446  78.64912           0.00           0.00     0.00000     0.00000     0.00000     0.00000     0.00000     0.00000     0.00000
     4      426.63742      666.11237    -3     5    -3   0.45507  -0.12282   0.02510  14.35967   0.08292  62.75121       55929.00      189646.33     1.81662     1.87239    17.01441     0.22816     0.00000   546.38177   546.38177
    14      648.66711      500.21246    -6     6    -4   0.17261   0.03025   0.00902  18.19123   0.05795  72.04456       13261.00       23293.33     1.20478     1.46448     3.81320     0.18336     0.00000   258.92685   258.92685
     8      668.66699      570.49841    -5     5    -3   0.11612  -0.03299   0.00624  15.64165   0.07079  68.09210       37921.00      182708.33     1.90498     2.85919   175.28316     0.30811     0.00000   426.85529   426.85529
    11      868.11212      257.28445    -5     3    -3   0.07494   0.20784   0.00706  10.82856   0.08280  87.48734       20250.00       58184.33     1.77376     1.89189    57.02814     0.21182     0.00000   868.37585   868.37585
    10      331.59180      270.35526    -4     6    -6  -0.49320  -0.03354   0.02230  15.68241   0.05785  86.21156       53069.00       79244.33     1.08433     1.53709   179.94479     0.19281     0.00000   669.00659   669.00659
     9      282.61465      288.47067    -3     5    -5  -0.42019  -0.03829   0.01868  12.97655   0.07064  85.10137       21477.00       45414.33     1.09012     1.87167     0.08536     0.19250     0.00000   649.00000   649.00000
    19      258.62045      619.58807    -3     7    -5  -0.04702  -0.38202   0.01043  19.09096   0.05964  65.98077       19093.00       37362.33     1.23608     1.68604     6.90412     0.22966     0.00000   129.71082   129.71082
    17      858.88397      567.50549    -7     5    -3   0.16668  -0.27116   0.01107  18.24910   0.05968  69.39221        8023.00       19908.33     1.09111     1.94767   179.99461     0.30086     0.00000   464.00858   464.00858
    31      475.02988      454.86990    -6     8    -6   0.01812   0.02111   0.00115  21.96838   0.04659  74.55627         502.00        2192.33     1.23157     2.02899     5.57246     0.10209     0.00000   699.03442   699.03442
    20      463.66962      498.15952    -5     7    -5   0.36433  -0.12843   0.01941  19.31498   0.05462  71.98214       13544.00       27382.33     1.17385     1.73528   177.77100     0.21283     0.00000   439.08289   439.08289
    22      721.86115      228.63602    -8     6    -6   0.05193   0.01995   0.00241  18.98018   0.04655  89.11550       23054.00       33534.33     1.15925     1.26739   179.21925     0.18854     0.00000   753.87170   753.87170
    15      129.38226       39.62132    -3     5    -7  -0.21539   0.22409   0.01010  13.62019   0.05948  99.85717       13652.00       31127.33     1.49126     1.64902    33.61734     0.22415     0.00000   859.20746   859.20746
    18      438.70132       20.97249    -6     6    -8   0.42718   0.29342   0.01940  17.13957   0.04649 102.16083        9085.00       18219.33     1.22932     1.54538   179.31073     0.20899     0.00000   722.14758   722.14758
    30     1012.69794      601.56458    -9     5    -3   0.03370  -0.16424   0.00447  21.60178   0.05069  68.96041        5269.00        9209.33     1.11601     1.34876   177.66078     0.15218     0.00000   262.00272   262.00272
    16      753.59485      232.69095    -7     5    -5  -0.32161   0.19313   0.01540  16.22792   0.05456  88.87534         892.00        3338.33     1.58680     1.79860   171.46640     0.11667     0.00000   475.05807   475.05807
    21      145.61617      355.19437    -3     7    -7  -0.04705  -0.03298   0.00221  18.13777   0.05245  81.32972        1303.00        3523.33     1.32999     1.55966   170.64178     0.11107     0.00000  1013.00616  1013.00616
    23      364.75818      259.68668    -5     7    -7  -0.04270  -0.08917   0.00347  18.42389   0.04893  86.88900        7225.00       18666.33     1.23670     1.89645   179.20454     0.17359     0.00000   145.92863   145.92863
    29      784.10498       52.56717   -10     6    -8  -0.01119  -0.12854   0.00396  21.07609   0.03835 100.15235        3796.00       11260.33     1.48776     1.90598    52.88531     0.20583     0.00000   823.13904   823.13904
    33      300.68393       92.96273    -6     8   -10  -0.07077   0.04016   0.00312  21.53338   0.03834  97.34213         599.00        2577.33     1.41478     1.65508     0.00000     0.11977     0.00000   971.96399   971.96399
    25      919.92841      273.27808    -9     5    -5   0.11441  -0.07973   0.00518  19.04877   0.04744  86.63262         883.00        3854.33     1.47934     1.80100   170.21840     0.14806     0.00000   784.07709   784.07709
    26       27.57792      162.44102    -3     7    -9   0.31825   0.02531   0.01072  18.66348   0.04597  92.52883         879.00        2567.33     1.10978     1.74036   179.16974     0.10334     0.00000   301.01230   301.01230
    24      822.88239       31.35025    -9     5    -7   0.16814  -0.12475   0.00716  18.39847   0.04356 101.33089        9654.00       16265.33     1.20789     1.31829     0.59133     0.17988     0.00000   365.10574   365.10574
    27      261.67941       78.66236    -5     7    -9  -0.07138  -0.05517   0.00320  18.84919   0.04354  98.10726        3425.00       11143.33     1.65663     1.85977    19.91528     0.18819     0.00000   920.14404   920.14404
    35      698.72186      226.37688    -9     7    -7   0.07862  -0.14306   0.00578  21.74935   0.04058  89.25083           0.00           0.00     0.00000     0.00000     0.00000     0.00000     0.00000     0.00000     0.00000
    28      454.66724       47.75049    -7     7    -9   0.00246   0.02769   0.00087  19.88942   0.04053 100.54082        3982.00        9702.33     1.37979     1.69759   169.29221     0.16812     0.00000    27.91962    27.91962
    32      971.53046       85.51441   -11     5    -7  -0.32553  -0.26911   0.01405  21.19114   0.03885  97.70908        2645.00        5681.33     1.08491     1.49739     2.45350     0.15100     0.00000   454.96686   454.96686
latticeparameters=   0.54324   0.54486   0.54092  89.94980  90.19436  90.25753
dpsx, dpsy: 179.00000 168.38699
dd, xcent, ycent:      150.57201      540.60303      212.87601
pitch,yaw,roll:  -0.22645   0.61642   0.00000
dev1, dev2, pixdev:   0.01220   0.01205   0.25372
deviatoric strain in crystal reference u1 u2 u3 (*10^3)
   0.44731  -2.25503  -1.68959
  -2.25503   3.40981   0.42883
  -1.68959   0.42883  -3.84381
deviatoric strain in sample reference X Y Z (*10^3)
  -0.25707  -0.85188   0.49463
  -0.85188   4.64887   0.17220
   0.49463   0.17220  -4.37850
deviatoric principal strains (*10^3):   4.79342  -0.33486  -4.44526
deviatoric strain principal axes in sample reference:
  -0.16540   0.98618   0.00960
   0.97849   0.16288   0.12663
  -0.12332  -0.03033   0.99190
deviatoric stress in crystal reference u1 u2 u3 (MPa)
       46.34209     -358.59525     -268.67844
     -358.59525      347.62860       68.19282
     -268.67844       68.19282     -390.06491
deviatoric stress in sample reference X Y Z (MPa)
      -37.11725     -197.98444      -27.59736
     -197.98444      569.59650       20.91642
      -27.59736       20.91642     -528.57349
deviatoric principal stresses (MPa):      629.16058      -95.04195     -530.21283
deviatoric stress principal axes in sample reference:
       -0.28568        0.95802        0.02412
       -0.95691       -0.28653        0.04709
        0.05202       -0.00963        0.99860
total strain in sample reference X Y Z (*10^3)
   1.54374  -0.85188   0.49463
  -0.85188   6.44968   0.17220
   0.49463   0.17220  -2.57769
total principal strains (*10^3):   6.59423   1.46595  -2.64445
total strain principal axes in sample reference:
  -0.16540   0.98618   0.00960
   0.97849   0.16288   0.12663
  -0.12332  -0.03033   0.99190
total stress in crystal reference u1 u2 u3 (MPa)
      574.91559     -358.59525     -268.67844
     -358.59525      876.20209       68.19282
     -268.67844       68.19282      138.50858
total stress in sample reference X Y Z (MPa)
      491.45624     -197.98444      -27.59736
     -197.98444     1098.17004       20.91642
      -27.59736       20.91642        0.00000
total principal stresses (MPa):     1157.73401      433.53156       -1.63937
total stress principal axes in sample reference:
       -0.28568        0.95802        0.02412
       -0.95691       -0.28653        0.04709
        0.05202       -0.00963        0.99860
dilatational strain (*10^-3):        1.80081
hydrostatic stress (MPa):      529.87543
Von Mises stress (MPa):     1014.39386
equivalent strain (*10^-3):        5.34474
equivalent stress (MPa):     1014.39386
maximum resolved shear stress:       14.63956
coordinates of a, b, c in X, Y, Z
   0.44442  -0.20243   0.23852
   0.19252   0.50582   0.06499
  -0.24575   0.03224   0.48106
coordinates of a*, b*, c* in X, Y, Z
   1.50606  -0.67790   0.81480
   0.65597   1.70070   0.22113
  -0.83536   0.10637   1.64673
