\\vmware-host\Shared Folders\Desktop\SiHyperlaueFinal_shielded_results\results_00083.STR
Number of grains:       1
Grain no:       1   Grainlist file index:       1    Number of peaks:      33
no   x(exp)  y(exp)  h  k  l xdev  ydev  angdev  energy  dspace  twotheta  intens   integr  xwidth   ywidth  tilt  rfactor   pearson  xcentroid  ycentroid
     2      392.63373      871.97058    -2     4    -2  -0.32194  -0.11263   0.01869  12.44780   0.11105  53.29236       43004.00      145485.95     1.74431     2.05757   178.64432     0.20884     0.00000   746.65570   746.65570
     5      746.34863      951.25189    -3     3    -1  -0.35681   0.53080   0.02273  11.59338   0.12490  50.69764       41696.00      106801.96     1.61749     1.89686    78.92284     0.21675     0.00000  1026.76990  1026.76990
    13      991.67706      299.61737    -4     2    -2   0.12877  -0.07478   0.00539   8.25854   0.11084  85.25961       39411.00       67985.96     1.22340     1.55724   179.41051     0.22245     0.00000   282.87701   282.87701
     3      546.05499      225.13663    -3     3    -3   0.10079   0.19105   0.00783   8.45281   0.10446  89.19069       30408.00       47102.96     1.24110     1.24298    93.14849     0.18642     0.00000   992.02289   992.02289
     7     1026.44873      909.48975    -5     3    -1  -0.26661   0.26631   0.01350  14.49299   0.09197  55.43450         458.00        1463.96     1.18126     1.49407     4.18075     0.07149     0.00000    62.02711    62.02711
     6      925.01495      683.02710    -6     4    -2   0.08627   0.01018   0.00401  16.08253   0.07268  64.06265       40805.00      108025.96     1.60566     1.98400    26.01074     0.24211     0.00000   925.35419   925.35419
    36       61.82848      407.69696    -1     3    -3   0.23350   0.29393   0.01265   7.85998   0.12446  78.64889           0.00           0.00     0.00000     0.00000     0.00000     0.00000     0.00000     0.00000     0.00000
     4      426.63721      666.11267    -3     5    -3   0.44890  -0.13066   0.02478  14.35975   0.08292  62.75162       57578.00      194146.95     1.81406     1.87202    16.37267     0.22940     0.00000   546.38110   546.38110
    14      648.66754      500.21475    -6     6    -4   0.16922   0.02118   0.00883  18.19122   0.05795  72.04495       13713.00       24019.96     1.20529     1.46160     4.17038     0.18539     0.00000   258.92209   258.92209
     8      668.66675      570.49060    -5     5    -3   0.11347  -0.03331   0.00610  15.64161   0.07079  68.09254       38698.00      186112.95     1.90489     2.85486   175.13857     0.30857     0.00000   426.85486   426.85486
    11      868.11157      257.28870    -5     3    -3   0.07950   0.20002   0.00693  10.82853   0.08280  87.48756       20838.00       59644.96     1.82050     1.83835     1.20844     0.22276     0.00000   868.37567   868.37567
    10      331.59143      270.35236    -4     6    -6  -0.49717  -0.02929   0.02248  15.68260   0.05785  86.21147       53863.00       81022.96     1.08469     1.55181     0.05310     0.19307     0.00000   669.00250   669.00250
     9      282.61224      288.47098    -3     5    -5  -0.42209  -0.03657   0.01876  12.97673   0.07064  85.10125       22222.00       46942.96     1.08940     1.87228   179.98128     0.19461     0.00000   649.00885   649.00885
    19      258.62003      619.58844    -3     7    -5  -0.05273  -0.38552   0.01061  19.09121   0.05964  65.98098       19670.00       38501.96     1.23755     1.69017     6.70319     0.22701     0.00000   129.70975   129.70975
    17      858.89276      567.50830    -7     5    -3   0.16002  -0.28091   0.01103  18.24899   0.05968  69.39260        8292.00       20431.96     1.08972     1.94846   179.97186     0.30035     0.00000   464.01566   464.01566
    31      475.01053      454.83224    -6     8    -6   0.03239   0.05474   0.00239  21.96851   0.04659  74.55652         493.00        2176.96     1.22040     1.94322     7.11864     0.10531     0.00000   699.00989   699.00989
    20      463.67032      498.15518    -5     7    -5   0.35824  -0.12872   0.01910  19.31509   0.05462  71.98242       13685.00       27891.96     1.17037     1.73474   177.71918     0.21769     0.00000   439.07874   439.07874
    22      721.84601      228.63576    -8     6    -6   0.06722   0.01691   0.00305  18.98019   0.04655  89.11571       23353.00       34265.96     1.16132     1.26904   179.11990     0.19306     0.00000   753.87787   753.87787
    15      129.38036       39.62143    -3     5    -7  -0.21410   0.23220   0.01022  13.62041   0.05948  99.85670       13748.00       31368.96     1.49333     1.65860    68.04418     0.22201     0.00000   859.20966   859.20966
    18      438.69971       20.97356    -6     6    -8   0.42666   0.29487   0.01940  17.13971   0.04649 102.16067        9262.00       18714.96     1.23404     1.51378   177.68178     0.22037     0.00000   722.16083   722.16083
    30     1012.71283      601.54681    -9     5    -3   0.02643  -0.15040   0.00402  21.60164   0.05069  68.96068        5367.00        9462.96     1.11713     1.35913   178.77144     0.15346     0.00000   262.02579   262.02579
    16      753.59436      232.69193    -7     5    -5  -0.32025   0.18869   0.01529  16.22791   0.05456  88.87556         963.00        3358.96     1.53051     1.79359   173.51694     0.11467     0.00000   475.06708   475.06708
    21      145.61302      355.20181    -3     7    -7  -0.04740  -0.03679   0.00228  18.13810   0.05245  81.32952        1235.00        3467.96     1.35951     1.61881   170.85919     0.10870     0.00000  1013.00745  1013.00745
    23      364.75473      259.68481    -5     7    -7  -0.04354  -0.08642   0.00342  18.42410   0.04893  86.88894        7275.00       18854.96     1.24177     1.89825   179.30870     0.17811     0.00000   145.91251   145.91251
    29      784.12994       52.52034   -10     6    -8  -0.03314  -0.08354   0.00291  21.07609   0.03835 100.15246        4031.00       11560.96     1.45754     1.85979    39.13235     0.22003     0.00000   823.14685   823.14685
    32      300.68509       93.03106    -6     8   -10  -0.07473  -0.02397   0.00307  21.53366   0.03834  97.34186        2781.00        5818.96     1.08360     1.48619     1.28573     0.14923     0.00000   454.98798   454.98798
    25      919.92242      273.27304    -9     5    -5   0.12607  -0.07801   0.00558  19.04871   0.04744  86.63283         910.00        3927.96     1.58747     1.89552    80.83857     0.14459     0.00000   784.09955   784.09955
    26       27.57934      162.43890    -3     7    -9   0.31696   0.03584   0.01069  18.66385   0.04597  92.52836         822.00        2625.96     1.15491     1.81345   176.39389     0.10314     0.00000   301.02289   301.02289
    24      822.86371       31.38167    -9     5    -7   0.19108  -0.15797   0.00837  18.39846   0.04356 101.33099        9977.00       16625.96     1.20569     1.30755     4.11434     0.18193     0.00000   365.11536   365.11536
    27      261.67966       78.66026    -5     7    -9  -0.07409  -0.04793   0.00319  18.84945   0.04354  98.10694        3553.00       11380.96     1.65125     1.86368    16.43468     0.18344     0.00000   920.15973   920.15973
    35      698.72314      226.28772    -9     7    -7   0.07699  -0.05706   0.00391  21.74937   0.04058  89.25103           0.00           0.00     0.00000     0.00000     0.00000     0.00000     0.00000     0.00000     0.00000
    28      454.66306       47.75815    -7     7    -9   0.00435   0.02197   0.00071  19.88958   0.04053 100.54070        4030.00        9974.96     1.37934     1.71650   169.73814     0.17266     0.00000    27.90549    27.90549
    33      971.57446       85.54508   -11     5    -7  -0.36073  -0.30169   0.01562  21.19109   0.03885  97.70916         644.00        2542.96     1.35455     1.72695    12.94666     0.11613     0.00000   971.96857   971.96857
latticeparameters=   0.54325   0.54485   0.54092  89.94795  90.19393  90.25883
dpsx, dpsy: 179.00000 168.38699
dd, xcent, ycent:      150.57201      540.60303      212.87601
pitch,yaw,roll:  -0.22645   0.61642   0.00000
dev1, dev2, pixdev:   0.01228   0.01208   0.25393
deviatoric strain in crystal reference u1 u2 u3 (*10^3)
   0.45287  -2.26643  -1.68583
  -2.26643   3.39981   0.44483
  -1.68583   0.44483  -3.83942
deviatoric strain in sample reference X Y Z (*10^3)
  -0.26831  -0.86969   0.49770
  -0.86969   4.65047   0.17855
   0.49770   0.17855  -4.36891
deviatoric principal strains (*10^3):   4.80063  -0.35010  -4.43727
deviatoric strain principal axes in sample reference:
  -0.16813   0.98571   0.01007
   0.97781   0.16547   0.12845
  -0.12495  -0.03144   0.99167
deviatoric stress in crystal reference u1 u2 u3 (MPa)
       46.90470     -360.40714     -268.08029
     -360.40714      346.60803       70.73741
     -268.08029       70.73741     -389.62115
deviatoric stress in sample reference X Y Z (MPa)
      -39.09872     -200.52141      -27.09806
     -200.52141      570.29425       22.02413
      -27.09806       22.02413     -527.30396
deviatoric principal stresses (MPa):      631.07629      -98.26418     -528.92053
deviatoric stress principal axes in sample reference:
       -0.28749        0.95746        0.02493
       -0.95643       -0.28837        0.04561
        0.05085       -0.01073        0.99865
total strain in sample reference X Y Z (*10^3)
   1.52818  -0.86969   0.49770
  -0.86969   6.44695   0.17855
   0.49770   0.17855  -2.57242
total principal strains (*10^3):   6.59712   1.44638  -2.64079
total strain principal axes in sample reference:
  -0.16813   0.98571   0.01007
   0.97781   0.16547   0.12845
  -0.12495  -0.03144   0.99167
total stress in crystal reference u1 u2 u3 (MPa)
      574.20862     -360.40714     -268.08029
     -360.40714      873.91199       70.73741
     -268.08029       70.73741      137.68279
total stress in sample reference X Y Z (MPa)
      488.20520     -200.52141      -27.09806
     -200.52141     1097.59814       22.02413
      -27.09806       22.02413        0.00000
total principal stresses (MPa):     1158.38013      429.03976       -1.61659
total stress principal axes in sample reference:
       -0.28749        0.95746        0.02493
       -0.95643       -0.28837        0.04561
        0.05085       -0.01073        0.99865
dilatational strain (*10^-3):        1.79648
hydrostatic stress (MPa):      528.60114
Von Mises stress (MPa):     1015.62665
equivalent strain (*10^-3):        5.34528
equivalent stress (MPa):     1015.62665
maximum resolved shear stress:       16.07179
coordinates of a, b, c in X, Y, Z
   0.44442  -0.20243   0.23852
   0.19250   0.50582   0.06499
  -0.24574   0.03225   0.48107
coordinates of a*, b*, c* in X, Y, Z
   1.50609  -0.67787   0.81478
   0.65600   1.70072   0.22110
  -0.83536   0.10635   1.64673
