\\vmware-host\Shared Folders\Desktop\SiHyperlaueFinal_shielded_results\results_00006.STR
Number of grains:       1
Grain no:       1   Grainlist file index:       1    Number of peaks:      33
no   x(exp)  y(exp)  h  k  l xdev  ydev  angdev  energy  dspace  twotheta  intens   integr  xwidth   ywidth  tilt  rfactor   pearson  xcentroid  ycentroid
     3      392.61499      871.97797    -2     4    -2  -0.33094  -0.11319   0.01920  12.44813   0.11104  53.29220       51520.00       76349.54     1.22468     1.23541   170.70943     0.18171     0.00000   991.97565   991.97565
     4      746.26007      951.28052    -3     3    -1  -0.30998   0.55047   0.02061  11.59411   0.12490  50.69547      109825.00      356352.53     1.77600     1.87353     0.06645     0.23355     0.00000   546.36670   546.36670
    13      991.65558      299.62314    -4     2    -2   0.11081  -0.01805   0.00425   8.25891   0.11084  85.25590       60906.00      105812.54     1.23972     1.55914   179.12750     0.23310     0.00000   282.86655   282.86655
     2      546.01428      225.15520    -3     3    -3   0.12725   0.19868   0.00881   8.45304   0.10446  89.18897       73970.00      261191.55     1.83181     2.05393   168.46445     0.21788     0.00000   746.59509   746.59509
     6     1026.40588      909.55731    -5     3    -1  -0.28337   0.26716   0.01420  14.49406   0.09197  55.43106       50123.00      136327.55     1.64595     1.91342   101.75839     0.25135     0.00000   925.32855   925.32855
     7      924.96155      683.08917    -6     4    -2   0.09252   0.00578   0.00430  16.08353   0.07268  64.05939        2577.00        4370.54     1.13666     1.43241   179.74298     0.09065     0.00000    62.05037    62.05037
    29       61.79808      407.68216    -1     3    -3   0.24726   0.28805   0.01296   7.85998   0.12446  78.65011        5084.00       13497.54     1.42266     1.71690    87.50678     0.22903     0.00000   823.14246   823.14246
     5      426.60196      666.13995    -3     5    -3   0.45958  -0.14459   0.02539  14.36018   0.08292  62.75100       54921.00      144621.55     1.65802     1.87581   106.34311     0.19575     0.00000  1026.72925  1026.72925
    15      648.66687      500.27609    -6     6    -4   0.14252  -0.00538   0.00742  18.19201   0.05795  72.04282       18170.00       37724.54     1.42923     1.55696    54.57842     0.22887     0.00000   859.18744   859.18744
     9      668.66687      570.53046    -5     5    -3   0.08321  -0.03642   0.00454  15.64235   0.07079  68.09037       28178.00       55553.54     1.08831     1.83580   179.99686     0.20143     0.00000   649.00940   649.00940
     8      868.05603      257.36288    -5     3    -3   0.10524   0.17910   0.00698  10.82897   0.08280  87.48426       57980.00      255202.55     1.89426     2.68070   175.58176     0.30456     0.00000   426.80157   426.80157
    11      331.58093      270.35852    -4     6    -6  -0.49818  -0.02924   0.02252  15.68286   0.05785  86.21108       48911.00      126776.54     1.64885     1.89044   104.22481     0.23782     0.00000   868.38635   868.38635
    10      282.60565      288.46930    -3     5    -5  -0.42723  -0.03342   0.01898  12.97691   0.07064  85.10117       72981.00      105910.54     1.08394     1.48163     0.01459     0.19289     0.00000   669.00427   669.00427
    19      258.60806      619.58734    -3     7    -5  -0.06204  -0.38844   0.01084  19.09148   0.05964  65.98132       29125.00       57269.54     1.24496     1.69551     7.12761     0.24471     0.00000   129.68185   129.68185
    17      858.84863      567.55182    -7     5    -3   0.16427  -0.27252   0.01101  18.25000   0.05968  69.38950        9363.00       23976.54     1.08603     1.94914   179.96649     0.30217     0.00000   464.01205   464.01205
    32      474.96255      454.84152    -6     8    -6   0.06007   0.06454   0.00371  21.96919   0.04659  74.55537        3215.00        6587.54     1.08179     1.50557     3.28847     0.15990     0.00000   454.99561   454.99561
    20      463.66852      498.18933    -5     7    -5   0.33878  -0.14496   0.01819  19.31569   0.05461  71.98138       16615.00       34121.54     1.17088     1.75496   177.75327     0.22461     0.00000   439.08441   439.08441
    22      721.82605      228.65109    -8     6    -6   0.06615   0.04302   0.00326  18.98085   0.04655  89.11305       28899.00       43598.54     1.18275     1.30028   179.11172     0.20773     0.00000   753.85010   753.85010
    14      129.37589       39.61760    -3     5    -7  -0.21153   0.22308   0.00998  13.62043   0.05948  99.85743       15402.00       27341.54     1.23642     1.45972     6.07050     0.19581     0.00000   258.90240   258.90240
    18      438.69992       20.98929    -6     6    -8   0.42396   0.29649   0.01933  17.13997   0.04649 102.15959       11388.00       21409.54     1.20303     1.47327   179.40202     0.21385     0.00000   722.15485   722.15485
    31     1012.67847      601.61334    -9     5    -3   0.00958  -0.15420   0.00392  21.60293   0.05069  68.95704         608.00        2272.54     1.22362     1.92690     4.10874     0.09721     0.00000   699.00818   699.00818
    16      753.58167      232.70326    -7     5    -5  -0.33022   0.22140   0.01612  16.22850   0.05456  88.87274        1104.00        3562.54     1.51763     1.69705   177.55521     0.12041     0.00000   475.08969   475.08969
    21      145.60403      355.18445    -3     7    -7  -0.05245  -0.03153   0.00239  18.13819   0.05245  81.33027        1498.00        3906.54     1.30293     1.53103   173.46996     0.11558     0.00000  1013.01044  1013.01044
    23      364.74551      259.68991    -5     7    -7  -0.04586  -0.08210   0.00338  18.42444   0.04893  86.88834        8488.00       22530.54     1.26310     1.89929   179.21271     0.18664     0.00000   145.90141   145.90141
    30      784.07172       52.60494   -10     6    -8   0.00911  -0.11926   0.00364  21.07669   0.03835 100.14951        6314.00       10848.54     1.11727     1.36459   177.02512     0.15712     0.00000   262.02618   262.02618
    34      300.68375       92.99767    -6     8   -10  -0.07739   0.01325   0.00314  21.53389   0.03834  97.34161         522.00        2764.24     1.23885     2.33164     5.66252     0.52932     0.00000   615.84363   615.84363
    25      919.89832      273.34988    -9     5    -5   0.11657  -0.09763   0.00552  19.04951   0.04744  86.62934        1071.00        4350.54     1.46969     1.79140   168.67262     0.15446     0.00000   784.08710   784.08710
    26       27.57062      162.41566    -3     7    -9   0.31701   0.03631   0.01069  18.66380   0.04597  92.52962         960.00        2698.54     1.12672     1.81435   177.63612     0.09820     0.00000   301.00229   301.00229
    24      822.83771       31.45435    -9     5    -7   0.20016  -0.17790   0.00897  18.39898   0.04356 101.32788       12117.00       19822.54     1.19850     1.28285     1.38947     0.19234     0.00000   365.09717   365.09717
    27      261.67932       78.66118    -5     7    -9  -0.07691  -0.04877   0.00330  18.84961   0.04354  98.10693        4638.00       13401.54     1.60391     1.77680    17.16495     0.20501     0.00000   920.15430   920.15430
    36      698.71454      226.35548    -9     7    -7   0.06569  -0.08532   0.00402  21.75011   0.04058  89.24847           0.00           0.00     0.00000     0.00000     0.00000     0.00000     0.00000     0.00000     0.00000
    28      454.66415       47.77115    -7     7    -9  -0.00082   0.02766   0.00087  19.88992   0.04053 100.53952        4777.00       11925.54     1.39497     1.73312   170.37003     0.18485     0.00000    27.90044    27.90044
    33      971.55377       85.62006   -11     5    -7  -0.36853  -0.31190   0.01603  21.19180   0.03885  97.70551         741.00        2784.54     1.39193     1.54032    17.35800     0.12448     0.00000   971.97174   971.97174
latticeparameters=   0.54325   0.54484   0.54093  89.94778  90.19327  90.25718
dpsx, dpsy: 179.00000 168.38699
dd, xcent, ycent:      150.57201      540.60303      212.87601
pitch,yaw,roll:  -0.22645   0.61642   0.00000
dev1, dev2, pixdev:   0.01233   0.01207   0.25659
deviatoric strain in crystal reference u1 u2 u3 (*10^3)
   0.45871  -2.25193  -1.68016
  -2.25193   3.38071   0.44640
  -1.68016   0.44640  -3.82627
deviatoric strain in sample reference X Y Z (*10^3)
  -0.26042  -0.86824   0.50067
  -0.86824   4.62494   0.18081
   0.50067   0.18081  -4.35137
deviatoric principal strains (*10^3):   4.77562  -0.34166  -4.42081
deviatoric strain principal axes in sample reference:
  -0.16890   0.98558   0.01026
   0.97755   0.16617   0.12955
  -0.12598  -0.03191   0.99152
deviatoric stress in crystal reference u1 u2 u3 (MPa)
       47.49098     -358.10193     -267.17944
     -358.10193      344.65866       70.98695
     -267.17944       70.98695     -388.29108
deviatoric stress in sample reference X Y Z (MPa)
      -38.10379     -199.81738      -26.38947
     -199.81738      567.12317       22.53562
      -26.38947       22.53562     -525.16077
deviatoric principal stresses (MPa):      627.88007      -97.29920     -526.72229
deviatoric stress principal axes in sample reference:
       -0.28820        0.95723        0.02530
       -0.95630       -0.28908        0.04376
        0.04920       -0.01159        0.99872
total strain in sample reference X Y Z (*10^3)
   1.52876  -0.86824   0.50067
  -0.86824   6.41412   0.18081
   0.50067   0.18081  -2.56219
total principal strains (*10^3):   6.56480   1.44752  -2.63162
total strain principal axes in sample reference:
  -0.16890   0.98558   0.01026
   0.97755   0.16617   0.12955
  -0.12598  -0.03191   0.99152
total stress in crystal reference u1 u2 u3 (MPa)
      572.65179     -358.10193     -267.17944
     -358.10193      869.81946       70.98695
     -267.17944       70.98695      136.86971
total stress in sample reference X Y Z (MPa)
      487.05701     -199.81738      -26.38947
     -199.81738     1092.28394       22.53562
      -26.38947       22.53562        0.00000
total principal stresses (MPa):     1153.04089      427.86157       -1.56151
total stress principal axes in sample reference:
       -0.28820        0.95723        0.02530
       -0.95630       -0.28908        0.04376
        0.04920       -0.01159        0.99872
dilatational strain (*10^-3):        1.78918
hydrostatic stress (MPa):      526.44696
Von Mises stress (MPa):     1010.79071
equivalent strain (*10^-3):        5.32082
equivalent stress (MPa):     1010.79071
maximum resolved shear stress:       16.84063
coordinates of a, b, c in X, Y, Z
   0.44443  -0.20245   0.23851
   0.19254   0.50580   0.06498
  -0.24572   0.03226   0.48109
coordinates of a*, b*, c* in X, Y, Z
   1.50608  -0.67797   0.81471
   0.65610   1.70074   0.22105
  -0.83529   0.10641   1.64675
