\\vmware-host\Shared Folders\Desktop\SiHyperlaueFinal_shielded_results\results_00033.STR
Number of grains:       1
Grain no:       1   Grainlist file index:       1    Number of peaks:      33
no   x(exp)  y(exp)  h  k  l xdev  ydev  angdev  energy  dspace  twotheta  intens   integr  xwidth   ywidth  tilt  rfactor   pearson  xcentroid  ycentroid
     2      392.62256      871.98444    -2     4    -2  -0.33101  -0.10607   0.01918  12.44787   0.11105  53.29160       58107.00      200703.81     1.80450     2.06000   178.03246     0.21401     0.00000   746.61426   746.61426
     5      746.29437      951.29901    -3     3    -1  -0.33123   0.52993   0.02145  11.59383   0.12490  50.69565       48582.00      126088.80     1.67514     1.84801   105.97343     0.19775     0.00000  1026.74365  1026.74365
    13      991.66791      299.62643    -4     2    -2   0.11264  -0.03837   0.00444   8.25873   0.11084  85.25692       48755.00       84180.80     1.23095     1.55153   179.05296     0.22863     0.00000   282.87402   282.87402
     3      546.02783      225.15121    -3     3    -3   0.12147   0.19357   0.00851   8.45281   0.10446  89.18957       38865.00       58087.80     1.21977     1.23830   176.57626     0.17802     0.00000   992.00983   992.00983
     6     1026.42175      909.53833    -5     3    -1  -0.28300   0.26994   0.01421  14.49367   0.09197  55.43190       45142.00      121084.80     1.60545     1.95489   107.41570     0.24668     0.00000   925.33508   925.33508
     7      924.97467      683.06403    -6     4    -2   0.09406   0.01835   0.00437  16.08312   0.07268  64.06015        1095.00        2326.80     1.15376     1.37626   176.62978     0.08036     0.00000    62.01199    62.01199
    35       61.78214      407.68942    -1     3    -3   0.26224   0.28772   0.01342   7.85976   0.12446  78.64973           0.00           0.00     0.00000     0.00000     0.00000     0.00000     0.00000     0.00000     0.00000
     4      426.61234      666.13037    -3     5    -3   0.45678  -0.13091   0.02521  14.35981   0.08292  62.75077       79313.00      260403.81     1.78963     1.87302     0.97911     0.23101     0.00000   546.37134   546.37134
    14      648.66711      500.25668    -6     6    -4   0.15286   0.00748   0.00796  18.19151   0.05795  72.04324       14442.00       25540.80     1.22740     1.45183     5.25960     0.19157     0.00000   258.91000   258.91000
     8      668.66675      570.51782    -5     5    -3   0.09444  -0.02966   0.00509  15.64193   0.07079  68.09074       48478.00      219109.81     1.89926     2.73491   175.26344     0.30526     0.00000   426.82153   426.82153
     9      868.08154      257.33286    -5     3    -3   0.09227   0.19440   0.00705  10.82873   0.08280  87.48518       25211.00       50498.80     1.08951     1.85042   179.95360     0.19419     0.00000   649.00836   649.00836
    11      331.58643      270.36414    -4     6    -6  -0.49955  -0.03881   0.02260  15.68239   0.05785  86.21133       32576.00       87434.80     1.65083     1.94016   126.63578     0.22029     0.00000   868.38123   868.38123
    10      282.60916      288.47345    -3     5    -5  -0.42750  -0.03999   0.01901  12.97652   0.07065  85.10132       62423.00       91646.80     1.08417     1.50320     0.10078     0.19257     0.00000   668.99896   668.99896
    19      258.61127      619.59161    -3     7    -5  -0.06097  -0.38437   0.01072  19.09098   0.05964  65.98086       23617.00       46157.80     1.24290     1.68478     7.29609     0.23829     0.00000   129.69817   129.69817
    17      858.85504      567.53455    -7     5    -3   0.17143  -0.26659   0.01116  18.24954   0.05968  69.39022        8669.00       21700.80     1.08681     1.94801     0.01518     0.30049     0.00000   464.00253   464.00253
    30      474.97467      454.85928    -6     8    -6   0.05562   0.04370   0.00320  21.96855   0.04659  74.55556        5797.00       10148.80     1.11575     1.36484   177.18970     0.15808     0.00000   262.01767   262.01767
    20      463.66965      498.17416    -5     7    -5   0.34530  -0.13157   0.01845  19.31514   0.05462  71.98148       14981.00       30212.80     1.17055     1.72859   177.67088     0.22012     0.00000   439.09299   439.09299
    22      721.83978      228.64673    -8     6    -6   0.06290   0.03515   0.00303  18.98038   0.04655  89.11384       25874.00       38813.80     1.17156     1.29113   178.91267     0.20292     0.00000   753.86530   753.86530
    15      129.38300       39.61925    -3     5    -7  -0.22045   0.21624   0.01008  13.62004   0.05948  99.85772       16022.00       34260.80     1.44923     1.58679    34.83862     0.22613     0.00000   859.18463   859.18463
    18      438.69946       20.96873    -6     6    -8   0.42904   0.30600   0.01964  17.13951   0.04649 102.16029       10263.00       19768.80     1.21334     1.50542   178.08652     0.21168     0.00000   722.14923   722.14923
    31     1012.68933      601.61243    -9     5    -3   0.01410  -0.16907   0.00433  21.60241   0.05069  68.95798         550.00        2290.80     1.21281     1.90912     1.84817     0.10441     0.00000   699.01324   699.01324
    16      753.58569      232.69725    -7     5    -5  -0.32331   0.21465   0.01575  16.22811   0.05456  88.87356        1039.00        3542.80     1.56064     1.74035   172.10291     0.12022     0.00000   475.06653   475.06653
    21      145.60963      355.18469    -3     7    -7  -0.05736  -0.02894   0.00255  18.13766   0.05245  81.33010        1324.00        3466.80     1.30354     1.52704   172.25757     0.10705     0.00000  1012.99847  1012.99847
    23      364.75302      259.68726    -5     7    -7  -0.04865  -0.08435   0.00351  18.42389   0.04893  86.88865        7842.00       20726.80     1.24647     1.90159   179.12183     0.18352     0.00000   145.91438   145.91438
    29      784.12274       52.57302   -10     6    -8  -0.03151  -0.10332   0.00343  21.07624   0.03835 100.15046        4503.00       12367.80     1.46364     1.81287    84.47803     0.21069     0.00000   823.13159   823.13159
    32      300.67905       92.97966    -6     8   -10  -0.07030   0.02402   0.00293  21.53327   0.03834  97.34207        2884.00        6143.81     1.07848     1.51327     0.83100     0.15564     0.00000   454.99323   454.99323
    24      919.90033      273.33585    -9     5    -5   0.12780  -0.09925   0.00594  19.04910   0.04744  86.63030       10730.00       17667.80     1.20285     1.30265     0.91745     0.18256     0.00000   365.11890   365.11890
    26       27.57419      162.42226    -3     7    -9   0.31010   0.02994   0.01045  18.66326   0.04597  92.52960         917.00        2771.80     1.09910     1.75507   179.34200     0.11034     0.00000   301.00443   301.00443
    25      822.86108       31.41109    -9     5    -7   0.18761  -0.15163   0.00817  18.39861   0.04356 101.32887         974.00        4230.81     1.51457     1.82685   166.59074     0.15286     0.00000   784.07788   784.07788
    27      261.67822       78.65881    -5     7    -9  -0.07434  -0.05323   0.00327  18.84906   0.04354  98.10735        4196.00       12630.80     1.61135     1.80404    17.57590     0.20244     0.00000   920.15173   920.15173
    36      698.71973      226.36346    -9     7    -7   0.07063  -0.10514   0.00462  21.74956   0.04058  89.24924           0.00           0.00     0.00000     0.00000     0.00000     0.00000     0.00000     0.00000     0.00000
    28      454.66583       47.76322    -7     7    -9   0.00258   0.02480   0.00078  19.88938   0.04053 100.54021        4258.00       10733.80     1.39039     1.73005   170.36711     0.17984     0.00000    27.92837    27.92837
    33      971.53998       85.60290   -11     5    -7  -0.34177  -0.31373   0.01530  21.19141   0.03885  97.70657         681.00        2475.80     1.44093     1.56522    20.42882     0.10890     0.00000   972.00311   972.00311
latticeparameters=   0.54324   0.54485   0.54093  89.94943  90.19395  90.25788
dpsx, dpsy: 179.00000 168.38699
dd, xcent, ycent:      150.57201      540.60303      212.87601
pitch,yaw,roll:  -0.22645   0.61642   0.00000
dev1, dev2, pixdev:   0.01232   0.01211   0.25596
deviatoric strain in crystal reference u1 u2 u3 (*10^3)
   0.44588  -2.25809  -1.68606
  -2.25809   3.39402   0.43201
  -1.68606   0.43201  -3.82671
deviatoric strain in sample reference X Y Z (*10^3)
  -0.26201  -0.85928   0.48836
  -0.85928   4.63756   0.17199
   0.48836   0.17199  -4.36236
deviatoric principal strains (*10^3):   4.78473  -0.34357  -4.42798
deviatoric strain principal axes in sample reference:
  -0.16694   0.98592   0.00962
   0.97832   0.16442   0.12592
  -0.12257  -0.03044   0.99199
deviatoric stress in crystal reference u1 u2 u3 (MPa)
       46.18869     -359.08072     -268.11755
     -359.08072      346.01544       68.69859
     -268.11755       68.69859     -388.33356
deviatoric stress in sample reference X Y Z (MPa)
      -37.95311     -198.87059      -28.12652
     -198.87059      568.58044       20.92748
      -28.12652       20.92748     -526.75677
deviatoric principal stresses (MPa):      628.65466      -96.32526     -528.45880
deviatoric stress principal axes in sample reference:
       -0.28674        0.95770        0.02433
       -0.95652       -0.28762        0.04852
        0.05346       -0.00936        0.99853
total strain in sample reference X Y Z (*10^3)
   1.53261  -0.85928   0.48836
  -0.85928   6.43218   0.17199
   0.48836   0.17199  -2.56774
total principal strains (*10^3):   6.57935   1.45105  -2.63336
total strain principal axes in sample reference:
  -0.16694   0.98592   0.00962
   0.97832   0.16442   0.12592
  -0.12257  -0.03044   0.99199
total stress in crystal reference u1 u2 u3 (MPa)
      572.94543     -359.08072     -268.11755
     -359.08072      872.77222       68.69859
     -268.11755       68.69859      138.42320
total stress in sample reference X Y Z (MPa)
      488.80365     -198.87059      -28.12652
     -198.87059     1095.33716       20.92748
      -28.12652       20.92748        0.00000
total principal stresses (MPa):     1155.41150      430.43149       -1.70206
total stress principal axes in sample reference:
       -0.28674        0.95770        0.02433
       -0.95652       -0.28762        0.04852
        0.05346       -0.00936        0.99853
dilatational strain (*10^-3):        1.79462
hydrostatic stress (MPa):      528.04694
Von Mises stress (MPa):     1012.73071
equivalent strain (*10^-3):        5.33033
equivalent stress (MPa):     1012.73071
maximum resolved shear stress:       15.20512
coordinates of a, b, c in X, Y, Z
   0.44441  -0.20245   0.23851
   0.19254   0.50580   0.06498
  -0.24573   0.03225   0.48108
coordinates of a*, b*, c* in X, Y, Z
   1.50607  -0.67796   0.81474
   0.65607   1.70069   0.22109
  -0.83529   0.10641   1.64672
