\\vmware-host\Shared Folders\Desktop\SiHyperlaueFinal_shielded_results\results_00145.STR
Number of grains:       1
Grain no:       1   Grainlist file index:       1    Number of peaks:      32
no   x(exp)  y(exp)  h  k  l xdev  ydev  angdev  energy  dspace  twotheta  intens   integr  xwidth   ywidth  tilt  rfactor   pearson  xcentroid  ycentroid
     4      392.64093      872.04315    -2     4    -2  -0.29005  -0.12502   0.01694  12.44971   0.11104  53.28967       34025.00      124486.33     1.83498     1.88199     3.79835     0.22389     0.00000   546.38531   546.38531
     8      746.40527      951.30536    -3     3    -1  -0.39220   0.48956   0.02418  11.59428   0.12489  50.69734       17629.00       38070.33     1.08947     1.88121     0.00000     0.18814     0.00000   648.99976   648.99976
    13      991.69000      299.60361    -4     2    -2   0.14930  -0.10891   0.00654   8.25850   0.11083  85.26247       11535.00       20170.33     1.19147     1.45183     3.08924     0.17719     0.00000   258.93155   258.93155
     3      546.08600      225.17712    -3     3    -3   0.08006   0.16419   0.00655   8.45333   0.10445  89.18981       21726.00       35515.33     1.25137     1.28001     4.23100     0.19459     0.00000   992.03992   992.03992
     6     1026.48157      909.47601    -5     3    -1  -0.26293   0.25162   0.01321  14.49315   0.09196  55.43610       28958.00       78039.33     1.60882     1.99653   128.84949     0.22593     0.00000   925.35309   925.35309
     5      925.04462      683.00842    -6     4    -2   0.08352   0.00863   0.00388  16.08292   0.07267  64.06390       25301.00       65057.33     1.60232     1.90533   161.83496     0.22037     0.00000  1026.79797  1026.79797
     2      426.66406      666.12939    -3     5    -3   0.45314  -0.09774   0.02495  14.36162   0.08291  62.74898       19703.00       60985.33     1.65894     2.05509   178.84991     0.19899     0.00000   746.71729   746.71729
    12      648.66736      500.20264    -6     6    -4   0.18559   0.04709   0.00975  18.19253   0.05794  72.04418       28024.00       47060.33     1.20960     1.51765   179.10735     0.21092     0.00000   282.89758   282.89758
     7      668.66705      570.48969    -5     5    -3   0.13044  -0.01855   0.00694  15.64276   0.07079  68.09184       25621.00      129569.33     1.91119     2.97946   176.54639     0.30851     0.00000   426.91138   426.91138
    14      868.13043      257.26736    -5     3    -3   0.08071   0.18858   0.00665  10.82866   0.08280  87.48960       10633.00       25924.33     1.61212     1.66804    77.19220     0.21472     0.00000   859.20282   859.20282
     9      331.60056      270.38107    -4     6    -6  -0.48242  -0.01483   0.02179  15.68411   0.05784  86.20873       41167.00       62260.33     1.08453     1.55059   179.92191     0.19098     0.00000   668.99976   668.99976
    10      282.61722      288.49048    -3     5    -5  -0.39784  -0.00710   0.01764  12.97807   0.07064  85.09818       11365.00       33904.33     1.75121     1.93660    23.76984     0.19360     0.00000   868.33105   868.33105
    19      258.62543      619.59796    -3     7    -5  -0.01075  -0.33324   0.00876  19.09399   0.05963  65.97744       11455.00       23412.33     1.17364     1.72506   177.43729     0.21261     0.00000   439.08057   439.08057
    17      858.91876      567.47546    -7     5    -3   0.15586  -0.26282   0.01053  18.24957   0.05968  69.39356        7671.00       16253.33     1.25645     1.56216   179.00609     0.21120     0.00000   722.17725   722.17725
    31      475.08060      454.84985    -6     8    -6  -0.01627   0.07249   0.00234  21.97071   0.04659  74.55436        2354.00        5286.33     1.08299     1.53764   179.76636     0.14883     0.00000   455.00000   455.00000
    20      463.67151      498.15533    -5     7    -5   0.38054  -0.09024   0.02010  19.31716   0.05461  71.98011        1034.00        2951.33     1.34665     1.67293   171.23444     0.10182     0.00000  1013.01990  1013.01990
    21      721.87250      228.63089    -8     6    -6   0.05185   0.00944   0.00234  18.98082   0.04655  89.11651       19423.00       28187.33     1.15614     1.25405   178.04466     0.18178     0.00000   753.88599   753.88599
    15      129.38309       39.63011    -3     5    -7  -0.19074   0.27771   0.01061  13.62154   0.05947  99.85373         731.00        2700.33     1.53629     1.84541   177.51373     0.09433     0.00000   475.05618   475.05618
    18      438.70029       20.96623    -6     6    -8   0.42950   0.31653   0.01982  17.14065   0.04649 102.15979       14579.00       28369.33     1.21901     1.68652     6.01919     0.21237     0.00000   129.72951   129.72951
    30     1012.72131      601.49023    -9     5    -3   0.05349  -0.12791   0.00408  21.60173   0.05069  68.96273         461.00        2091.33     1.26089     1.99615   179.01776     0.09881     0.00000   699.03345   699.03345
    16      753.60004      232.68742    -7     5    -5  -0.31351   0.17631   0.01487  16.22838   0.05456  88.87664        6986.00       17235.33     1.09372     1.94966   179.94699     0.29797     0.00000   464.00049   464.00049
    22      145.61623      355.24347    -3     7    -7  -0.00210  -0.01613   0.00048  18.14029   0.05245  81.32574        6354.00       15887.33     1.23877     1.88139   179.14165     0.16983     0.00000   145.93234   145.93234
    23      364.77121      259.68594    -5     7    -7  -0.03932  -0.04862   0.00239  18.42578   0.04893  86.88645        8423.00       14363.33     1.19852     1.34793     1.92402     0.17419     0.00000   365.11261   365.11261
    29      784.17059       52.49797   -10     6    -8  -0.06320  -0.09820   0.00396  21.07635   0.03835 100.15469        4517.00        8124.33     1.11941     1.34672   178.85645     0.14843     0.00000   262.01169   262.01169
    32      300.68204       92.98226    -6     8   -10  -0.05637   0.06240   0.00300  21.53532   0.03834  97.33958         560.00        2322.33     1.42059     1.80679     6.29048     0.10595     0.00000   971.99695   971.99695
    25      919.99768      273.20770    -9     5    -5   0.07585  -0.05210   0.00342  19.04880   0.04744  86.63523         747.00        2473.33     1.12596     1.79915     1.24833     0.10480     0.00000   301.00397   301.00397
    26       27.58553      162.49271    -3     7    -9   0.35985   0.04935   0.01216  18.66574   0.04597  92.52466        2781.00        9895.33     1.71175     1.93472    51.32635     0.16512     0.00000   920.17767   920.17767
    24      822.89465       31.32749    -9     5    -7   0.17348  -0.14948   0.00769  18.39858   0.04356 101.33368         746.00        3496.33     1.71745     1.85264   148.98586     0.12812     0.00000   784.07635   784.07635
    27      261.68115       78.66125    -5     7    -9  -0.05834  -0.00755   0.00227  18.85093   0.04354  98.10448        3671.00        8734.33     1.36163     1.62165   167.41193     0.16708     0.00000    27.92879    27.92879
    34      698.72540      226.35283    -9     7    -7   0.08513  -0.13113   0.00568  21.75018   0.04057  89.25161         522.00        2764.24     1.23885     2.33164     5.66252     0.52932     0.00000   615.84363   615.84363
    28      454.66727       47.77147    -7     7    -9   0.00460   0.02283   0.00074  19.89069   0.04053 100.53982        3303.00       10101.33     1.50893     1.92977    73.58717     0.19495     0.00000   823.10168   823.10168
    33      971.54028       85.51935   -11     5    -7  -0.29573  -0.34021   0.01457  21.19089   0.03885  97.71278         602.00        2301.57     1.33434     1.68748    15.61367     0.10778     0.00000   971.97083   971.97083
latticeparameters=   0.54328   0.54480   0.54093  89.94904  90.19235  90.25884
dpsx, dpsy: 179.00000 168.38699
dd, xcent, ycent:      150.57201      540.60303      212.87601
pitch,yaw,roll:  -0.22645   0.61642   0.00000
dev1, dev2, pixdev:   0.01216   0.01197   0.24406
deviatoric strain in crystal reference u1 u2 u3 (*10^3)
   0.52322  -2.26631  -1.67217
  -2.26631   3.30472   0.43547
  -1.67217   0.43547  -3.81506
deviatoric strain in sample reference X Y Z (*10^3)
  -0.23527  -0.91686   0.51402
  -0.91686   4.57692   0.14516
   0.51402   0.14516  -4.32877
deviatoric principal strains (*10^3):   4.74596  -0.33326  -4.39982
deviatoric strain principal axes in sample reference:
  -0.18047   0.98357   0.00551
   0.97511   0.17818   0.13192
  -0.12877  -0.02918   0.99124
deviatoric stress in crystal reference u1 u2 u3 (MPa)
       54.03557     -360.38898     -265.90915
     -360.38898      336.91348       69.24844
     -265.90915       69.24844     -387.16812
deviatoric stress in sample reference X Y Z (MPa)
      -36.13826     -204.94794      -25.15418
     -204.94794      562.67419       17.92254
      -25.15418       17.92254     -522.75500
deviatoric principal stresses (MPa):      626.62579      -98.73914     -524.10571
deviatoric stress principal axes in sample reference:
       -0.29610        0.95492        0.02137
       -0.95393       -0.29678        0.04405
        0.04840       -0.00734        0.99880
total strain in sample reference X Y Z (*10^3)
   1.54572  -0.91686   0.51402
  -0.91686   6.35790   0.14516
   0.51402   0.14516  -2.54778
total principal strains (*10^3):   6.52695   1.44772  -2.61883
total strain principal axes in sample reference:
  -0.18047   0.98357   0.00551
   0.97511   0.17818   0.13192
  -0.12877  -0.02918   0.99124
total stress in crystal reference u1 u2 u3 (MPa)
      576.79053     -360.38898     -265.90915
     -360.38898      859.66846       69.24844
     -265.90915       69.24844      135.58685
total stress in sample reference X Y Z (MPa)
      486.61673     -204.94794      -25.15418
     -204.94794     1085.42920       17.92254
      -25.15418       17.92254        0.00000
total principal stresses (MPa):     1149.38086      424.01584       -1.35076
total stress principal axes in sample reference:
       -0.29610        0.95492        0.02137
       -0.95393       -0.29678        0.04405
        0.04840       -0.00734        0.99880
dilatational strain (*10^-3):        1.78099
hydrostatic stress (MPa):      524.01532
Von Mises stress (MPa):     1007.78827
equivalent strain (*10^-3):        5.29109
equivalent stress (MPa):     1007.78827
maximum resolved shear stress:       21.41902
coordinates of a, b, c in X, Y, Z
   0.44450  -0.20240   0.23858
   0.19245   0.50583   0.06496
  -0.24578   0.03224   0.48111
coordinates of a*, b*, c* in X, Y, Z
   1.50614  -0.67768   0.81483
   0.65593   1.70108   0.22108
  -0.83546   0.10638   1.64677
