\\vmware-host\Shared Folders\Desktop\SiHyperlaueFinal_shielded_results\results_00135.STR
Number of grains:       1
Grain no:       1   Grainlist file index:       1    Number of peaks:      32
no   x(exp)  y(exp)  h  k  l xdev  ydev  angdev  energy  dspace  twotheta  intens   integr  xwidth   ywidth  tilt  rfactor   pearson  xcentroid  ycentroid
     4      392.64218      872.05151    -2     4    -2  -0.29056  -0.12424   0.01696  12.44964   0.11104  53.28929       34598.00      128832.52     1.83409     1.88463     8.22989     0.22405     0.00000   546.38617   546.38617
     6      746.39001      951.33173    -3     3    -1  -0.38099   0.48177   0.02354  11.59444   0.12489  50.69660       30471.00       82312.52     1.66722     1.91970     9.19036     0.25218     0.00000   925.35370   925.35370
    13      991.68872      299.61145    -4     2    -2   0.13789  -0.10011   0.00603   8.25857   0.11083  85.26147       11953.00       20635.52     1.19158     1.43402     3.27221     0.17707     0.00000   258.93427   258.93427
     3      546.08521      225.19148    -3     3    -3   0.08083   0.15748   0.00639   8.45329   0.10445  89.18931       22630.00       36257.52     1.24895     1.26045    12.63852     0.19007     0.00000   992.03363   992.03363
     7     1026.45801      909.49689    -5     3    -1  -0.25422   0.24702   0.01281  14.49341   0.09196  55.43527       27418.00      136158.52     1.91069     2.96674   176.16357     0.30943     0.00000   426.90424   426.90424
     5      925.03003      683.01123    -6     4    -2   0.08803   0.02240   0.00409  16.08315   0.07267  64.06300       27901.00       70537.52     1.66837     1.81398   141.94180     0.20052     0.00000  1026.78027  1026.78027
     2      426.66089      666.13586    -3     5    -3   0.45704  -0.09657   0.02516  14.36154   0.08291  62.74858       23051.00       70696.52     1.67865     2.03779   177.05124     0.20544     0.00000   746.70190   746.70190
    12      648.66748      500.22394    -6     6    -4   0.18388   0.03783   0.00963  18.19259   0.05794  72.04347       29430.00       48800.52     1.20453     1.49796   179.20226     0.20955     0.00000   282.89841   282.89841
     8      668.66699      570.49664    -5     5    -3   0.12849  -0.01242   0.00683  15.64285   0.07079  68.09110       18469.00       39040.52     1.09006     1.87328     0.01017     0.18964     0.00000   649.00372   649.00372
    14      868.12256      257.29837    -5     3    -3   0.08100   0.17274   0.00624  10.82872   0.08280  87.48866       11337.00       26941.52     1.51671     1.69598    66.39764     0.21819     0.00000   859.21118   859.21118
     9      331.59970      270.39136    -4     6    -6  -0.48116  -0.02352   0.02174  15.68390   0.05784  86.20863       42163.00       63258.52     1.08471     1.53470     0.04627     0.19203     0.00000   668.99835   668.99835
    10      282.61969      288.50101    -3     5    -5  -0.40035  -0.01731   0.01776  12.97787   0.07064  85.09816       11905.00       35070.52     1.79719     1.86044   155.13405     0.19943     0.00000   868.34021   868.34021
    19      258.62488      619.60345    -3     7    -5  -0.01036  -0.33643   0.00884  19.09370   0.05963  65.97733       11619.00       23713.52     1.17561     1.72921   177.90875     0.20937     0.00000   439.08884   439.08884
    17      858.91437      567.49329    -7     5    -3   0.15281  -0.26483   0.01046  18.24978   0.05968  69.39265        7899.00       16298.52     1.24979     1.56470   177.26311     0.20548     0.00000   722.16254   722.16254
    31      475.09222      454.85617    -6     8    -6  -0.02734   0.07324   0.00261  21.97059   0.04659  74.55393        2403.00        5189.52     1.08017     1.49565     0.67846     0.14344     0.00000   455.00803   455.00803
    20      463.67047      498.14642    -5     7    -5   0.38219  -0.07422   0.02014  19.31705   0.05461  71.97969        1119.00        3150.52     1.34427     1.60833   171.84219     0.10418     0.00000  1013.00037  1013.00037
    21      721.87079      228.63120    -8     6    -6   0.05046   0.02138   0.00236  18.98086   0.04655  89.11573       19914.00       28712.52     1.15329     1.24998   179.25797     0.18266     0.00000   753.89148   753.89148
    15      129.38165       39.63118    -3     5    -7  -0.19217   0.27087   0.01049  13.62127   0.05948  99.85404         797.00        2842.52     1.53886     1.86844   177.62309     0.09459     0.00000   475.04785   475.04785
    18      438.70111       20.96846    -6     6    -8   0.42928   0.31789   0.01983  17.14047   0.04649 102.15957       15121.00       29360.52     1.21618     1.68804     5.97579     0.21373     0.00000   129.73753   129.73753
    30     1012.72375      601.53448    -9     5    -3   0.03710  -0.15603   0.00434  21.60203   0.05069  68.96179         434.00        2046.52     1.33517     2.03799     8.59115     0.09733     0.00000   699.02606   699.02606
    16      753.60150      232.68866    -7     5    -5  -0.31889   0.18804   0.01523  16.22842   0.05456  88.87582        7234.00       17621.52     1.08969     1.94582   179.95995     0.29997     0.00000   464.01340   464.01340
    22      145.61758      355.24292    -3     7    -7  -0.00567  -0.01836   0.00060  18.13992   0.05245  81.32591        6476.00       16139.52     1.23800     1.88565   179.14931     0.16869     0.00000   145.93398   145.93398
    23      364.76373      259.68640    -5     7    -7  -0.03127  -0.04656   0.00208  18.42555   0.04893  86.88629        8521.00       14470.52     1.20000     1.32868     0.45148     0.17615     0.00000   365.09924   365.09924
    29      784.13007       52.50969   -10     6    -8  -0.02739  -0.09632   0.00317  21.07636   0.03835 100.15387        4723.00        8259.52     1.11991     1.35789   176.61374     0.14248     0.00000   262.01129   262.01129
    32      300.67957       93.00651    -6     8   -10  -0.05385   0.03779   0.00248  21.53499   0.03834  97.33960         583.00        2393.52     1.37538     1.72529    18.56742     0.11422     0.00000   971.97607   971.97607
    25      919.94055      273.24515    -9     5    -5   0.12340  -0.07363   0.00542  19.04894   0.04744  86.63426         758.00        2469.52     1.10690     1.81420   177.03195     0.10685     0.00000   301.01324   301.01324
    26       27.58108      162.48415    -3     7    -9   0.35872   0.05064   0.01213  18.66532   0.04597  92.52506        2933.00        9986.52     1.67690     1.88221    18.49935     0.17719     0.00000   920.13867   920.13867
    24      822.88763       31.34211    -9     5    -7   0.17461  -0.14952   0.00773  18.39859   0.04356 101.33282         803.00        3628.52     1.70076     1.86173    85.45128     0.13054     0.00000   784.07458   784.07458
    27      261.67902       78.67417    -5     7    -9  -0.05661  -0.02208   0.00228  18.85063   0.04354  98.10458        3570.00        8630.52     1.37390     1.63994   168.94701     0.16484     0.00000    27.93554    27.93554
    34      698.77466      226.29863    -9     7    -7   0.03331  -0.06523   0.00257  21.75020   0.04057  89.25086         522.00        2764.24     1.23885     2.33164     5.66252     0.52932     0.00000   615.84363   615.84363
    28      454.66397       47.74844    -7     7    -9   0.00847   0.05004   0.00160  19.89049   0.04053 100.53956        3377.00       10140.52     1.51264     1.91195    73.21449     0.19443     0.00000   823.12921   823.12921
    33      971.54803       85.55717   -11     5    -7  -0.31506  -0.36062   0.01549  21.19099   0.03885  97.71181         615.00        2440.83     1.37278     1.71477    15.85652     0.11131     0.00000   971.99982   971.99982
latticeparameters=   0.54328   0.54480   0.54093  89.95028  90.19220  90.25735
dpsx, dpsy: 179.00000 168.38699
dd, xcent, ycent:      150.57201      540.60303      212.87601
pitch,yaw,roll:  -0.22645   0.61642   0.00000
dev1, dev2, pixdev:   0.01216   0.01195   0.24320
deviatoric strain in crystal reference u1 u2 u3 (*10^3)
   0.51351  -2.25323  -1.67086
  -2.25323   3.31146   0.42473
  -1.67086   0.42473  -3.81209
deviatoric strain in sample reference X Y Z (*10^3)
  -0.23019  -0.89896   0.51086
  -0.89896   4.57116   0.14292
   0.51086   0.14292  -4.32808
deviatoric principal strains (*10^3):   4.73423  -0.32334  -4.39800
deviatoric strain principal axes in sample reference:
  -0.17763   0.98408   0.00551
   0.97578   0.17540   0.13073
  -0.12769  -0.02860   0.99140
deviatoric stress in crystal reference u1 u2 u3 (MPa)
       53.04802     -358.30850     -265.70053
     -358.30850      337.59979       67.54069
     -265.70053       67.54069     -386.86514
deviatoric stress in sample reference X Y Z (MPa)
      -35.04364     -202.39832      -25.40440
     -202.39832      561.50592       17.42929
      -25.40440       17.42929     -522.67963
deviatoric principal stresses (MPa):      624.20081      -96.37101     -524.04712
deviatoric stress principal axes in sample reference:
       -0.29417        0.95552        0.02104
       -0.95449       -0.29484        0.04483
        0.04903       -0.00689        0.99877
total strain in sample reference X Y Z (*10^3)
   1.55054  -0.89896   0.51086
  -0.89896   6.35189   0.14292
   0.51086   0.14292  -2.54736
total principal strains (*10^3):   6.51496   1.45739  -2.61727
total strain principal axes in sample reference:
  -0.17763   0.98408   0.00551
   0.97578   0.17540   0.13073
  -0.12769  -0.02860   0.99140
total stress in crystal reference u1 u2 u3 (MPa)
      575.72760     -358.30850     -265.70053
     -358.30850      860.27936       67.54069
     -265.70053       67.54069      135.81445
total stress in sample reference X Y Z (MPa)
      487.63596     -202.39832      -25.40440
     -202.39832     1084.18555       17.42929
      -25.40440       17.42929        0.00000
total principal stresses (MPa):     1146.88025      426.30862       -1.36751
total stress principal axes in sample reference:
       -0.29417        0.95552        0.02104
       -0.95449       -0.29484        0.04483
        0.04903       -0.00689        0.99877
dilatational strain (*10^-3):        1.78073
hydrostatic stress (MPa):      523.94049
Von Mises stress (MPa):     1005.13776
equivalent strain (*10^-3):        5.28267
equivalent stress (MPa):     1005.13776
maximum resolved shear stress:       19.96126
coordinates of a, b, c in X, Y, Z
   0.44449  -0.20240   0.23858
   0.19247   0.50582   0.06496
  -0.24578   0.03224   0.48111
coordinates of a*, b*, c* in X, Y, Z
   1.50612  -0.67773   0.81483
   0.65592   1.70105   0.22109
  -0.83545   0.10641   1.64675
