\\vmware-host\Shared Folders\Desktop\SiHyperlaueFinal_shielded_results\results_00115.STR
Number of grains:       1
Grain no:       1   Grainlist file index:       1    Number of peaks:      32
no   x(exp)  y(exp)  h  k  l xdev  ydev  angdev  energy  dspace  twotheta  intens   integr  xwidth   ywidth  tilt  rfactor   pearson  xcentroid  ycentroid
     2      392.64096      872.01196    -2     4    -2  -0.29779  -0.12515   0.01738  12.44988   0.11103  53.29101       28755.00       90490.41     1.68416     2.03963   178.50172     0.21249     0.00000   746.68549   746.68549
     5      746.39001      951.29736    -3     3    -1  -0.38662   0.50746   0.02404  11.59465   0.12489  50.69688       32546.00       80533.41     1.56346     1.82210   167.83469     0.22496     0.00000  1026.77795  1026.77795
    14      991.68488      299.61929    -4     2    -2   0.14720  -0.09367   0.00626   8.25872   0.11083  85.26066       11649.00       27452.41     1.50246     1.69125    32.14145     0.22036     0.00000   859.20380   859.20380
     4      546.07751      225.16328    -3     3    -3   0.08252   0.18513   0.00719   8.45359   0.10445  89.18934       38547.00      137989.41     1.83055     1.88052    18.50690     0.22466     0.00000   546.38678   546.38678
     7     1026.48499      909.53003    -5     3    -1  -0.27575   0.24335   0.01367  14.49379   0.09196  55.43420       30254.00      146652.41     1.90658     2.92141   175.60597     0.30967     0.00000   426.88751   426.88751
     6      925.02051      683.01611    -6     4    -2   0.09867   0.03026   0.00459  16.08350   0.07267  64.06240       33702.00       88822.41     1.68542     1.89987    67.16947     0.24543     0.00000   925.35046   925.35046
     3      426.65002      666.12744    -3     5    -3   0.45978  -0.11100   0.02533  14.36197   0.08291  62.74978       24181.00       37920.41     1.23865     1.25018   161.94279     0.18527     0.00000   992.03442   992.03442
    12      648.66760      500.20956    -6     6    -4   0.17732   0.04727   0.00932  18.19308   0.05794  72.04374       30751.00       51596.41     1.21265     1.51448   179.59360     0.21316     0.00000   282.89758   282.89758
     8      668.66699      570.49823    -5     5    -3   0.12212  -0.01980   0.00651  15.64324   0.07078  68.09140       19259.00       41175.41     1.09055     1.87783     0.00000     0.19131     0.00000   649.01593   649.01593
    13      868.12146      257.28769    -5     3    -3   0.08252   0.19158   0.00677  10.82895   0.08279  87.48816       12443.00       21300.41     1.19455     1.42793     3.95150     0.17901     0.00000   258.92932   258.92932
     9      331.59680      270.37781    -4     6    -6  -0.48313  -0.01559   0.02182  15.68463   0.05784  86.20899       45063.00       67377.41     1.08504     1.53424   179.92188     0.19104     0.00000   669.00366   669.00366
    10      282.61603      288.49231    -3     5    -5  -0.40069  -0.01586   0.01777  12.97850   0.07064  85.09861       12784.00       37969.41     1.82266     1.84471   174.69669     0.20645     0.00000   868.35077   868.35077
    19      258.62308      619.59741    -3     7    -5  -0.01396  -0.35767   0.00942  19.09443   0.05963  65.97878       12162.00       24486.41     1.17259     1.71651   177.57901     0.21259     0.00000   439.07153   439.07153
    17      858.90344      567.49115    -7     5    -3   0.16257  -0.25599   0.01064  18.25017   0.05967  69.39228        8278.00       16929.41     1.23859     1.56367   177.88931     0.20583     0.00000   722.15680   722.15680
    31      475.06235      454.84558    -6     8    -6  -0.00490   0.07379   0.00225  21.97137   0.04659  74.55455        2620.00        5523.41     1.08575     1.49306   179.22887     0.14401     0.00000   455.01422   455.01422
    20      463.67026      498.14423    -5     7    -5   0.37478  -0.08433   0.01978  19.31772   0.05461  71.98043        1161.00        3236.41     1.35517     1.53982   169.39861     0.10715     0.00000  1013.00677  1013.00677
    21      721.86908      228.63605    -8     6    -6   0.04846   0.01987   0.00226  18.98136   0.04655  89.11551       20274.00       29619.41     1.15944     1.25961   178.55605     0.18707     0.00000   753.87842   753.87842
    15      129.38687       39.62919    -3     5    -7  -0.19431   0.27476   0.01063  13.62203   0.05947  99.85395         817.00        3077.41     1.52367     1.82396   176.59451     0.10898     0.00000   475.05658   475.05658
    18      438.70029       20.95940    -6     6    -8   0.42587   0.33110   0.01991  17.14118   0.04648 102.15930       15709.00       30329.41     1.21620     1.68231     6.34285     0.21697     0.00000   129.73788   129.73788
    30     1012.71826      601.56000    -9     5    -3   0.04806  -0.16180   0.00469  21.60249   0.05069  68.96085         508.00        2177.41     1.28430     2.00595     7.05237     0.09387     0.00000   699.03058   699.03058
    16      753.59766      232.69081    -7     5    -5  -0.31805   0.19009   0.01522  16.22883   0.05456  88.87555        7405.00       17964.41     1.09095     1.93526   179.89149     0.29904     0.00000   464.00519   464.00519
    22      145.61440      355.22122    -3     7    -7  -0.00288  -0.01025   0.00033  18.14087   0.05244  81.32670        6610.00       16908.41     1.24264     1.88886   179.74249     0.17268     0.00000   145.94405   145.94405
    23      364.76587      259.68954    -5     7    -7  -0.03875  -0.05434   0.00249  18.42638   0.04893  86.88659        8668.00       14743.41     1.20523     1.33535     0.07620     0.17699     0.00000   365.10345   365.10345
    29      784.12531       52.55242   -10     6    -8  -0.02370  -0.13168   0.00416  21.07685   0.03835 100.15342        4822.00        8412.41     1.11861     1.32665   178.79681     0.14632     0.00000   262.02448   262.02448
    33      300.67892       93.01422    -6     8   -10  -0.05601   0.03106   0.00246  21.53604   0.03833  97.33953         610.00        2434.22     1.36405     1.79847    16.01220     0.11308     0.00000   971.97046   971.97046
    24      919.96863      273.25739    -9     5    -5   0.09769  -0.07541   0.00453  19.04931   0.04744  86.63364         849.00        3700.41     1.61352     1.81274   148.58018     0.13673     0.00000   784.08545   784.08545
    26       27.57826      162.45966    -3     7    -9   0.36800   0.06978   0.01250  18.66640   0.04597  92.52537        3072.00       10419.41     1.75042     1.83647    45.67989     0.17524     0.00000   920.14935   920.14935
    25      822.88867       31.33393    -9     5    -7   0.17377  -0.13287   0.00745  18.39900   0.04356 101.33232         754.00        2288.41     1.12539     1.79974   178.73096     0.09366     0.00000   300.99734   300.99734
    27      261.67935       78.66377    -5     7    -9  -0.05867  -0.01044   0.00229  18.85158   0.04354  98.10450        3646.00        8912.41     1.38731     1.66901   168.40050     0.16628     0.00000    27.91776    27.91776
    34      698.72754      226.34155    -9     7    -7   0.07625  -0.10540   0.00481  21.75080   0.04057  89.25068         522.00        2764.24     1.23885     2.33164     5.66252     0.52932     0.00000   615.84363   615.84363
    28      454.66541       47.76436    -7     7    -9   0.00246   0.03757   0.00118  19.89130   0.04052 100.53933        3324.00       10028.41     1.49972     1.90249    47.23284     0.19955     0.00000   823.12964   823.12964
    32      971.56738       85.58139   -11     5    -7  -0.32888  -0.37228   0.01608  21.19135   0.03885  97.71107         628.00        2476.41     1.35252     1.75159    16.34646     0.11544     0.00000   971.97876   971.97876
latticeparameters=   0.54329   0.54479   0.54093  89.94644  90.19042  90.25807
dpsx, dpsy: 179.00000 168.38699
dd, xcent, ycent:      150.57201      540.60303      212.87601
pitch,yaw,roll:  -0.22645   0.61642   0.00000
dev1, dev2, pixdev:   0.01229   0.01212   0.24954
deviatoric strain in crystal reference u1 u2 u3 (*10^3)
   0.54142  -2.25951  -1.65537
  -2.25951   3.29392   0.45821
  -1.65537   0.45821  -3.82246
deviatoric strain in sample reference X Y Z (*10^3)
  -0.24173  -0.92700   0.53964
  -0.92700   4.56714   0.15683
   0.53964   0.15683  -4.31253
deviatoric principal strains (*10^3):   4.73999  -0.33561  -4.39150
deviatoric strain principal axes in sample reference:
  -0.18229   0.98323   0.00617
   0.97382   0.17967   0.13923
  -0.13578  -0.03139   0.99024
deviatoric stress in crystal reference u1 u2 u3 (MPa)
       55.88597     -359.30652     -263.23669
     -359.30652      335.81592       72.86404
     -263.23669       72.86404     -387.92023
deviatoric stress in sample reference X Y Z (MPa)
      -37.69800     -206.04791      -21.59653
     -206.04791      561.50623       20.04050
      -21.59653       20.04050     -520.02655
deviatoric principal stresses (MPa):      626.09039     -101.19936     -521.10938
deviatoric stress principal axes in sample reference:
       -0.29705        0.95460        0.02229
       -0.95403       -0.29768        0.03495
        0.04000       -0.01088        0.99914
total strain in sample reference X Y Z (*10^3)
   1.52996  -0.92700   0.53964
  -0.92700   6.33883   0.15683
   0.53964   0.15683  -2.54084
total principal strains (*10^3):   6.51168   1.43608  -2.61981
total strain principal axes in sample reference:
  -0.18229   0.98323   0.00617
   0.97382   0.17967   0.13923
  -0.13578  -0.03139   0.99024
total stress in crystal reference u1 u2 u3 (MPa)
      575.91248     -359.30652     -263.23669
     -359.30652      855.84247       72.86404
     -263.23669       72.86404      132.10631
total stress in sample reference X Y Z (MPa)
      482.32852     -206.04791      -21.59653
     -206.04791     1081.53271       20.04050
      -21.59653       20.04050        0.00000
total principal stresses (MPa):     1146.11682      418.82721       -1.08284
total stress principal axes in sample reference:
       -0.29705        0.95460        0.02229
       -0.95403       -0.29768        0.03495
        0.04000       -0.01088        0.99914
dilatational strain (*10^-3):        1.77169
hydrostatic stress (MPa):      521.28711
Von Mises stress (MPa):     1005.32141
equivalent strain (*10^-3):        5.28301
equivalent stress (MPa):     1005.32141
maximum resolved shear stress:       23.01039
coordinates of a, b, c in X, Y, Z
   0.44452  -0.20241   0.23859
   0.19245   0.50583   0.06496
  -0.24575   0.03226   0.48113
coordinates of a*, b*, c* in X, Y, Z
   1.50618  -0.67769   0.81476
   0.65597   1.70113   0.22101
  -0.83547   0.10637   1.64682
