\\vmware-host\Shared Folders\Desktop\SiHyperlaueFinal_shielded_results\results_00018.STR
Number of grains:       1
Grain no:       1   Grainlist file index:       1    Number of peaks:      33
no   x(exp)  y(exp)  h  k  l xdev  ydev  angdev  energy  dspace  twotheta  intens   integr  xwidth   ywidth  tilt  rfactor   pearson  xcentroid  ycentroid
     2      392.61920      871.97864    -2     4    -2  -0.33144  -0.10566   0.01920  12.44797   0.11105  53.29184       75409.00      263527.09     1.81693     2.06662     0.00000     0.21729     0.00000   746.60181   746.60181
     4      746.28253      951.30945    -3     3    -1  -0.32485   0.52070   0.02104  11.59393   0.12490  50.69556      108696.00      350740.09     1.78110     1.87099     0.62089     0.23281     0.00000   546.37354   546.37354
    13      991.65710      299.61838    -4     2    -2   0.11698  -0.01594   0.00448   8.25884   0.11084  85.25607       59895.00      104043.08     1.23770     1.56201   179.13451     0.23259     0.00000   282.86020   282.86020
     3      546.01904      225.14659    -3     3    -3   0.12764   0.20811   0.00906   8.45294   0.10446  89.18892       51187.00       76460.08     1.23221     1.23876    56.78947     0.18353     0.00000   991.98572   991.98572
     6     1026.41199      909.54822    -5     3    -1  -0.27952   0.27028   0.01407  14.49385   0.09197  55.43142       49771.00      134018.08     1.62864     1.92676   102.10369     0.25097     0.00000   925.33215   925.33215
     7      924.96521      683.07410    -6     4    -2   0.09756   0.01728   0.00453  16.08332   0.07268  64.05965        2510.00        4371.08     1.14474     1.43195     0.59715     0.09396     0.00000    62.05721    62.05721
    29       61.80108      407.68561    -1     3    -3   0.24575   0.29376   0.01302   7.85988   0.12446  78.64960        4793.00       13239.08     1.44872     1.65427    34.24210     0.24935     0.00000   823.14380   823.14380
     5      426.60745      666.13794    -3     5    -3   0.45824  -0.13824   0.02530  14.35998   0.08292  62.75076       55257.00      144136.08     1.65659     1.86668   106.55326     0.19635     0.00000  1026.73401  1026.73401
    15      648.66711      500.26117    -6     6    -4   0.14846   0.00928   0.00773  18.19176   0.05795  72.04285       17554.00       36652.08     1.42710     1.56179    50.46446     0.22906     0.00000   859.19580   859.19580
    10      668.66699      570.52332    -5     5    -3   0.08953  -0.02969   0.00483  15.64213   0.07079  68.09042       71084.00      103829.08     1.08409     1.49514   179.97282     0.19296     0.00000   669.00519   669.00519
     8      868.06104      257.35107    -5     3    -3   0.10729   0.18922   0.00728  10.82887   0.08280  87.48438       56736.00      251567.08     1.89785     2.70191   175.02716     0.30598     0.00000   426.80679   426.80679
    12      331.58496      270.36868    -4     6    -6  -0.49858  -0.03601   0.02255  15.68265   0.05785  86.21087       37758.00       79935.08     1.29409     1.73265   178.14502     0.25039     0.00000   331.84085   331.84085
     9      282.60641      288.46744    -3     5    -5  -0.42473  -0.02737   0.01886  12.97674   0.07064  85.10091       27132.00       53935.08     1.08922     1.84502   179.97475     0.19663     0.00000   648.99988   648.99988
    19      258.60944      619.59052    -3     7    -5  -0.06087  -0.38400   0.01071  19.09123   0.05964  65.98091       28717.00       55662.08     1.23599     1.68732     6.93556     0.24201     0.00000   129.67947   129.67947
    17      858.84387      567.54529    -7     5    -3   0.17698  -0.26854   0.01140  18.24977   0.05968  69.38970        9120.00       23328.08     1.08791     1.95066   179.90614     0.30137     0.00000   463.99939   463.99939
    32      474.97708      454.85602    -6     8    -6   0.05020   0.05198   0.00307  21.96888   0.04659  74.55525        3173.00        6550.08     1.08185     1.49238   179.78467     0.15868     0.00000   454.97922   454.97922
    20      463.66879      498.18561    -5     7    -5   0.34306  -0.13893   0.01837  19.31541   0.05462  71.98124       16365.00       33096.08     1.17292     1.74028   177.44855     0.22271     0.00000   439.08011   439.08011
    22      721.83429      228.64809    -8     6    -6   0.06415   0.04541   0.00322  18.98065   0.04655  89.11309       28588.00       42983.08     1.17867     1.30286   177.42738     0.20668     0.00000   753.85004   753.85004
    14      129.38171       39.62080    -3     5    -7  -0.21416   0.22604   0.01010  13.62026   0.05948  99.85710       15278.00       27170.08     1.23198     1.46461     5.56883     0.19450     0.00000   258.90814   258.90814
    18      438.70056       20.97889    -6     6    -8   0.42784   0.30935   0.01965  17.13977   0.04649 102.15945       11223.00       21462.08     1.20865     1.49384   178.06873     0.21828     0.00000   722.15253   722.15253
    31     1012.69318      601.60712    -9     5    -3   0.00385  -0.15214   0.00383  21.60269   0.05069  68.95734         558.00        2371.08     1.22237     1.88123     6.85676     0.11029     0.00000   699.01227   699.01227
    16      753.58112      232.70055    -7     5    -5  -0.32325   0.22327   0.01587  16.22833   0.05456  88.87280        1092.00        3573.08     1.55621     1.73389   170.95914     0.11722     0.00000   475.05844   475.05844
    21      145.60567      355.20438    -3     7    -7  -0.05190  -0.04450   0.00256  18.13795   0.05245  81.32986        1374.00        3692.08     1.32790     1.51128   170.01456     0.11526     0.00000  1013.00330  1013.00330
    23      364.74603      259.68869    -5     7    -7  -0.04249  -0.07798   0.00318  18.42419   0.04893  86.88815        8599.00       22137.08     1.25651     1.89067   179.22969     0.18601     0.00000   145.91383   145.91383
    30      784.13708       52.56812   -10     6    -8  -0.05024  -0.08262   0.00326  21.07651   0.03835 100.14951        6121.00       10677.08     1.11653     1.35958   178.84367     0.16045     0.00000   262.02570   262.02570
    33      300.68637       93.02934    -6     8   -10  -0.07625  -0.01468   0.00308  21.53361   0.03834  97.34139         711.00        2813.08     1.41445     1.70786    19.71592     0.12464     0.00000   971.97589   971.97589
    25      919.91058      273.36383    -9     5    -5   0.11165  -0.11365   0.00564  19.04934   0.04744  86.62948        1002.00        4187.08     1.49188     1.84158   168.52283     0.14566     0.00000   784.07880   784.07880
    26       27.57511      162.42839    -3     7    -9   0.31483   0.03151   0.01061  18.66356   0.04597  92.52918         906.00        2938.08     1.12992     1.87591   177.24536     0.11509     0.00000   301.00354   301.00354
    24      822.82794       31.44970    -9     5    -7   0.21598  -0.17349   0.00939  18.39884   0.04356 101.32788       11529.00       18913.08     1.20621     1.28539     3.34631     0.18712     0.00000   365.10242   365.10242
    27      261.68048       78.66494    -5     7    -9  -0.07447  -0.04827   0.00320  18.84937   0.04354  98.10668        4552.00       13130.08     1.67987     1.72315   106.55486     0.20147     0.00000   920.12653   920.12653
    36      698.72009      226.38641    -9     7    -7   0.06624  -0.11669   0.00478  21.74987   0.04058  89.24851           0.00           0.00     0.00000     0.00000     0.00000     0.00000     0.00000     0.00000     0.00000
    28      454.66660       47.77008    -7     7    -9   0.00131   0.03092   0.00097  19.88968   0.04053 100.53939        4691.00       11415.08     1.38192     1.70956   169.63995     0.18215     0.00000    27.91388    27.91388
    34      971.54364       85.64670   -11     5    -7  -0.35183  -0.33989   0.01606  21.19166   0.03885  97.70557         522.00        2764.24     1.23885     2.33164     5.66252     0.52932     0.00000   615.84363   615.84363
latticeparameters=   0.54324   0.54485   0.54093  89.94801  90.19370  90.25771
dpsx, dpsy: 179.00000 168.38699
dd, xcent, ycent:      150.57201      540.60303      212.87601
pitch,yaw,roll:  -0.22645   0.61642   0.00000
dev1, dev2, pixdev:   0.01235   0.01214   0.25765
deviatoric strain in crystal reference u1 u2 u3 (*10^3)
   0.44760  -2.25654  -1.68393
  -2.25654   3.39036   0.44443
  -1.68393   0.44443  -3.82479
deviatoric strain in sample reference X Y Z (*10^3)
  -0.26560  -0.86460   0.49282
  -0.86460   4.63482   0.18172
   0.49282   0.18172  -4.35605
deviatoric principal strains (*10^3):   4.78390  -0.34718  -4.42356
deviatoric strain principal axes in sample reference:
  -0.16776   0.98577   0.01055
   0.97798   0.16507   0.12771
  -0.12415  -0.03174   0.99176
deviatoric stress in crystal reference u1 u2 u3 (MPa)
       46.36250     -358.83530     -267.77780
     -358.83530      345.64178       70.67289
     -267.77780       70.67289     -388.13931
deviatoric stress in sample reference X Y Z (MPa)
      -38.58754     -199.61320      -27.39987
     -199.61320      568.30908       22.50500
      -27.39987       22.50500     -525.85657
deviatoric principal stresses (MPa):      628.82727      -97.44391     -527.51831
deviatoric stress principal axes in sample reference:
       -0.28741        0.95747        0.02548
       -0.95643       -0.28832        0.04602
        0.05141       -0.01114        0.99862
total strain in sample reference X Y Z (*10^3)
   1.52595  -0.86460   0.49282
  -0.86460   6.42637   0.18172
   0.49282   0.18172  -2.56450
total principal strains (*10^3):   6.57546   1.44437  -2.63200
total strain principal axes in sample reference:
  -0.16776   0.98577   0.01055
   0.97798   0.16507   0.12771
  -0.12415  -0.03174   0.99176
total stress in crystal reference u1 u2 u3 (MPa)
      572.21906     -358.83530     -267.77780
     -358.83530      871.49835       70.67289
     -267.77780       70.67289      137.71724
total stress in sample reference X Y Z (MPa)
      487.26901     -199.61320      -27.39987
     -199.61320     1094.16565       22.50500
      -27.39987       22.50500        0.00000
total principal stresses (MPa):     1154.68372      428.41269       -1.66180
total stress principal axes in sample reference:
       -0.28741        0.95747        0.02548
       -0.95643       -0.28832        0.04602
        0.05141       -0.01114        0.99862
dilatational strain (*10^-3):        1.79155
hydrostatic stress (MPa):      527.14490
Von Mises stress (MPa):     1012.31641
equivalent strain (*10^-3):        5.32754
equivalent stress (MPa):     1012.31641
maximum resolved shear stress:       16.09468
coordinates of a, b, c in X, Y, Z
   0.44442  -0.20245   0.23851
   0.19254   0.50580   0.06498
  -0.24573   0.03226   0.48108
coordinates of a*, b*, c* in X, Y, Z
   1.50607  -0.67797   0.81473
   0.65609   1.70070   0.22107
  -0.83528   0.10639   1.64673
