\\vmware-host\Shared Folders\Desktop\SiHyperlaueFinal_shielded_results\results_00122.STR
Number of grains:       1
Grain no:       1   Grainlist file index:       1    Number of peaks:      32
no   x(exp)  y(exp)  h  k  l xdev  ydev  angdev  energy  dspace  twotheta  intens   integr  xwidth   ywidth  tilt  rfactor   pearson  xcentroid  ycentroid
     3      392.64108      872.02795    -2     4    -2  -0.29780  -0.12207   0.01736  12.44977   0.11103  53.29022       23734.00       37510.17     1.24601     1.25028   162.35765     0.18821     0.00000   992.03210   992.03210
     6      746.39685      951.31580    -3     3    -1  -0.39019   0.49813   0.02414  11.59451   0.12489  50.69656       32880.00       86780.17     1.66074     1.90855   118.08312     0.23836     0.00000   925.35034   925.35034
    13      991.68774      299.61566    -4     2    -2   0.14046  -0.10321   0.00616   8.25866   0.11083  85.26141       12365.00       21230.17     1.18667     1.43468     3.46987     0.17859     0.00000   258.92804   258.92804
     4      546.07263      225.16850    -3     3    -3   0.08600   0.17590   0.00702   8.45352   0.10445  89.18960       37781.00      135826.17     1.82883     1.88187    21.02679     0.22379     0.00000   546.38135   546.38135
     7     1026.47986      909.52869    -5     3    -1  -0.26776   0.23692   0.01328  14.49356   0.09196  55.43454       29387.00      142737.17     1.90923     2.93904   175.44800     0.31123     0.00000   426.89169   426.89169
     5      925.01794      683.01038    -6     4    -2   0.10279   0.02870   0.00478  16.08326   0.07267  64.06276       31256.00       78237.17     1.57350     1.83552   167.80215     0.22439     0.00000  1026.77478  1026.77478
     2      426.65427      666.13037    -3     5    -3   0.45564  -0.10592   0.02510  14.36178   0.08291  62.74937       27293.00       84149.17     1.67226     2.03266   178.49332     0.21148     0.00000   746.68945   746.68945
    12      648.66711      500.22119    -6     6    -4   0.17838   0.03354   0.00933  18.19283   0.05794  72.04387       30117.00       50805.17     1.21086     1.52161   179.35068     0.21341     0.00000   282.89319   282.89319
     8      668.66699      570.49457    -5     5    -3   0.12318  -0.01720   0.00656  15.64302   0.07079  68.09146       19204.00       40220.17     1.08943     1.86960     0.00322     0.18940     0.00000   649.00928   649.00928
    14      868.13715      257.27570    -5     3    -3   0.06396   0.19357   0.00647  10.82887   0.08279  87.48877       11678.00       27427.17     1.51373     1.68406    55.32080     0.21672     0.00000   859.21088   859.21088
     9      331.59756      270.37946    -4     6    -6  -0.48526  -0.01777   0.02192  15.68447   0.05784  86.20902       44425.00       66677.17     1.08502     1.54032   179.87325     0.19102     0.00000   668.99982   668.99982
    10      282.61716      288.48853    -3     5    -5  -0.40328  -0.01173   0.01788  12.97837   0.07064  85.09859       12569.00       37502.17     1.68252     2.00000   137.05408     0.19564     0.00000   868.34601   868.34601
    19      258.62650      619.60089    -3     7    -5  -0.01879  -0.35164   0.00930  19.09419   0.05963  65.97830       11946.00       24459.17     1.17483     1.72949   177.72052     0.21376     0.00000   439.07462   439.07462
    17      858.90942      567.49609    -7     5    -3   0.15741  -0.26775   0.01068  18.24991   0.05968  69.39265        8161.00       16700.17     1.22748     1.55269   177.24902     0.21205     0.00000   722.13385   722.13385
    31      475.03073      454.82175    -6     8    -6   0.02648   0.09819   0.00331  21.97108   0.04659  74.55451        2559.00        5554.17     1.07950     1.49163   177.50899     0.15267     0.00000   454.98935   454.98935
    20      463.67078      498.16849    -5     7    -5   0.37413  -0.10677   0.01982  19.31746   0.05461  71.98032        1096.00        3096.17     1.34854     1.62671   170.14938     0.10246     0.00000  1013.01154  1013.01154
    22      721.86566      228.63647    -8     6    -6   0.04989   0.01246   0.00226  18.98121   0.04655  89.11596        6560.00       16807.17     1.23852     1.89193   179.26926     0.17261     0.00000   145.93353   145.93353
    15      129.37259       39.62906    -3     5    -7  -0.18128   0.27462   0.01033  13.62197   0.05947  99.85396         840.00        2963.17     1.46496     1.79422     0.47121     0.10681     0.00000   475.06781   475.06781
    18      438.70135       20.96890    -6     6    -8   0.42236   0.31825   0.01959  17.14113   0.04648 102.15951       15516.00       30206.17     1.21774     1.70156     6.09610     0.21292     0.00000   129.73503   129.73503
    30     1012.72205      601.52753    -9     5    -3   0.04429  -0.14133   0.00415  21.60219   0.05069  68.96145         459.00        2138.17     1.32298     2.08007     4.98845     0.09865     0.00000   699.00598   699.00598
    16      753.59827      232.69040    -7     5    -5  -0.32081   0.18292   0.01524  16.22871   0.05456  88.87603        7229.00       18002.17     1.09247     1.95444     0.08490     0.29655     0.00000   464.01767   464.01767
    21      145.61772      355.22415    -3     7    -7  -0.00815  -0.00999   0.00046  18.14067   0.05244  81.32652       20150.00       29353.17     1.15798     1.25950   177.87933     0.18586     0.00000   753.88660   753.88660
    23      364.76236      259.68732    -5     7    -7  -0.03656  -0.05323   0.00240  18.42620   0.04893  86.88666        8753.00       14704.17     1.19251     1.32548     0.76498     0.17598     0.00000   365.11316   365.11316
    29      784.10004       52.54072   -10     6    -8  -0.00333  -0.12826   0.00392  21.07681   0.03835 100.15394        4735.00        8328.17     1.12586     1.32775   178.52594     0.14571     0.00000   262.02036   262.02036
    33      300.68002       92.98986    -6     8   -10  -0.05884   0.05368   0.00292  21.53592   0.03833  97.33964         610.00        2434.22     1.36405     1.79847    16.01220     0.11308     0.00000   971.97046   971.97046
    25      919.94580      273.22421    -9     5    -5   0.11726  -0.05348   0.00497  19.04916   0.04744  86.63431         776.00        2361.17     1.12527     1.79317   176.98566     0.09689     0.00000   300.99350   300.99350
    26       27.57719      162.46832    -3     7    -9   0.36763   0.06248   0.01246  18.66628   0.04597  92.52530        2994.00       10198.17     1.68180     1.89311    14.61252     0.17092     0.00000   920.15686   920.15686
    24      822.89178       31.34373    -9     5    -7   0.16489  -0.15157   0.00747  18.39898   0.04356 101.33286         833.00        3672.17     1.68450     1.83359    88.65646     0.13469     0.00000   784.08325   784.08325
    27      261.68277       78.66650    -5     7    -9  -0.06376  -0.01456   0.00250  18.85148   0.04354  98.10458        3687.00        8790.17     1.38895     1.65197   168.97261     0.15996     0.00000    27.93667    27.93667
    35      698.75763      226.31940    -9     7    -7   0.04427  -0.08981   0.00350  21.75063   0.04057  89.25110           0.00           0.00     0.00000     0.00000     0.00000     0.00000     0.00000     0.00000     0.00000
    28      454.66620       47.76382    -7     7    -9  -0.00069   0.03457   0.00108  19.89123   0.04052 100.53955        3419.00       10348.17     1.49739     1.91948    73.55248     0.19605     0.00000   823.13489   823.13489
    32      971.54907       85.55446   -11     5    -7  -0.31791  -0.35762   0.01550  21.19131   0.03885  97.71180         597.00        2365.17     1.38563     1.62230    11.60691     0.11157     0.00000   971.98535   971.98535
latticeparameters=   0.54329   0.54481   0.54092  89.94750  90.19207  90.25894
dpsx, dpsy: 179.00000 168.38699
dd, xcent, ycent:      150.57201      540.60303      212.87601
pitch,yaw,roll:  -0.22645   0.61642   0.00000
dev1, dev2, pixdev:   0.01224   0.01205   0.24767
deviatoric strain in crystal reference u1 u2 u3 (*10^3)
   0.53646  -2.26722  -1.66968
  -2.26722   3.31706   0.44885
  -1.66968   0.44885  -3.84049
deviatoric strain in sample reference X Y Z (*10^3)
  -0.23670  -0.92152   0.53406
  -0.92152   4.59119   0.15335
   0.53406   0.15335  -4.34146
deviatoric principal strains (*10^3):   4.76142  -0.33038  -4.41802
deviatoric strain principal axes in sample reference:
  -0.18070   0.98352   0.00597
   0.97447   0.17821   0.13656
  -0.13325  -0.03049   0.99061
deviatoric stress in crystal reference u1 u2 u3 (MPa)
       55.39073     -360.53284     -265.51306
     -360.53284      338.17761       71.37592
     -265.51306       71.37592     -389.74472
deviatoric stress in sample reference X Y Z (MPa)
      -36.65907     -205.72697      -22.85598
     -205.72697      564.24561       19.33762
      -22.85598       19.33762     -523.76294
deviatoric principal stresses (MPa):      628.48218      -99.73175     -524.92682
deviatoric stress principal axes in sample reference:
       -0.29610        0.95490        0.02190
       -0.95420       -0.29675        0.03790
        0.04269       -0.00967        0.99904
total strain in sample reference X Y Z (*10^3)
   1.54772  -0.92152   0.53406
  -0.92152   6.37561   0.15335
   0.53406   0.15335  -2.55704
total principal strains (*10^3):   6.54584   1.45404  -2.63360
total strain principal axes in sample reference:
  -0.18070   0.98352   0.00597
   0.97447   0.17821   0.13656
  -0.13325  -0.03049   0.99061
total stress in crystal reference u1 u2 u3 (MPa)
      579.15363     -360.53284     -265.51306
     -360.53284      861.94055       71.37592
     -265.51306       71.37592      134.01819
total stress in sample reference X Y Z (MPa)
      487.10382     -205.72697      -22.85598
     -205.72697     1088.00854       19.33762
      -22.85598       19.33762        0.00000
total principal stresses (MPa):     1152.24500      424.03119       -1.16389
total stress principal axes in sample reference:
       -0.29610        0.95491        0.02190
       -0.95420       -0.29675        0.03790
        0.04269       -0.00967        0.99904
dilatational strain (*10^-3):        1.78442
hydrostatic stress (MPa):      525.03748
Von Mises stress (MPa):     1010.30658
equivalent strain (*10^-3):        5.31031
equivalent stress (MPa):     1010.30658
maximum resolved shear stress:       22.16932
coordinates of a, b, c in X, Y, Z
   0.44451  -0.20241   0.23858
   0.19245   0.50584   0.06497
  -0.24576   0.03224   0.48111
coordinates of a*, b*, c* in X, Y, Z
   1.50616  -0.67770   0.81479
   0.65595   1.70107   0.22107
  -0.83547   0.10634   1.64685
