\\vmware-host\Shared Folders\Desktop\SiHyperlaueFinal_shielded_results\results_00147.STR
Number of grains:       1
Grain no:       1   Grainlist file index:       1    Number of peaks:      32
no   x(exp)  y(exp)  h  k  l xdev  ydev  angdev  energy  dspace  twotheta  intens   integr  xwidth   ywidth  tilt  rfactor   pearson  xcentroid  ycentroid
     4      392.64087      872.03833    -2     4    -2  -0.29146  -0.12273   0.01701  12.44929   0.11104  53.28978       33799.00      124213.13     1.83545     1.88283     8.70008     0.22278     0.00000   546.38416   546.38416
     8      746.41827      951.29987    -3     3    -1  -0.40142   0.49016   0.02466  11.59397   0.12489  50.69755       17607.00       38414.13     1.09073     1.88317     0.00000     0.19090     0.00000   648.99609   648.99609
    13      991.69043      299.60492    -4     2    -2   0.14596  -0.10782   0.00641   8.25848   0.11084  85.26232       11739.00       20357.13     1.18564     1.43890     3.24266     0.17830     0.00000   258.94376   258.94376
     3      546.08624      225.17873    -3     3    -3   0.08179   0.16229   0.00655   8.45321   0.10445  89.18983       21631.00       35199.13     1.25314     1.27622     5.61951     0.19269     0.00000   992.03741   992.03741
     6     1026.48572      909.46979    -5     3    -1  -0.26480   0.25184   0.01329  14.49291   0.09196  55.43636       28496.00       77757.13     1.71439     1.84486   106.95729     0.24203     0.00000   925.35321   925.35321
     5      925.03027      682.98431    -6     4    -2   0.10001   0.02904   0.00465  16.08267   0.07268  64.06410       25060.00       64497.13     1.59505     1.91038   163.11462     0.21843     0.00000  1026.80042  1026.80042
     2      426.66479      666.12286    -3     5    -3   0.45220  -0.09546   0.02489  14.36119   0.08291  62.74920       19351.00       59838.13     1.63807     2.06018   178.86839     0.20003     0.00000   746.71924   746.71924
    12      648.66760      500.19910    -6     6    -4   0.18768   0.04729   0.00986  18.19216   0.05794  72.04439       28392.00       47709.13     1.21092     1.51455   179.02203     0.21136     0.00000   282.89777   282.89777
     7      668.66681      570.48761    -5     5    -3   0.13322  -0.02029   0.00710  15.64243   0.07079  68.09206       25294.00      128857.13     1.90994     2.98017   176.49968     0.30946     0.00000   426.91425   426.91425
    14      868.14136      257.26270    -5     3    -3   0.06928   0.19554   0.00662  10.82860   0.08280  87.48946       10714.00       26425.13     1.52736     1.72551    66.46510     0.21778     0.00000   859.21149   859.21149
     9      331.60043      270.38120    -4     6    -6  -0.48175  -0.01702   0.02176  15.68380   0.05784  86.20886       40765.00       61920.13     1.08448     1.55480   179.95779     0.19151     0.00000   669.00079   669.00079
    10      282.61713      288.49261    -3     5    -5  -0.39788  -0.01149   0.01764  12.97780   0.07064  85.09832       10899.00       33646.13     1.81397     1.89375    12.27619     0.19881     0.00000   868.33618   868.33618
    19      258.62738      619.60284    -3     7    -5  -0.01593  -0.34096   0.00900  19.09341   0.05963  65.97761       11501.00       23658.13     1.17663     1.72613   177.44301     0.21480     0.00000   439.07379   439.07379
    17      858.92792      567.48370    -7     5    -3   0.14878  -0.27378   0.01050  18.24930   0.05968  69.39372        7758.00       16135.13     1.24722     1.56954   177.17484     0.20720     0.00000   722.15912   722.15912
    31      475.06445      454.84869    -6     8    -6   0.00094   0.06997   0.00212  21.97019   0.04659  74.55459        2405.00        5298.13     1.07899     1.53278   178.54256     0.14569     0.00000   454.97812   454.97812
    20      463.67108      498.14987    -5     7    -5   0.38178  -0.08877   0.02016  19.31667   0.05461  71.98035        1022.00        3054.13     1.38431     1.69590   170.44691     0.10129     0.00000  1012.99945  1012.99945
    21      721.87262      228.62929    -8     6    -6   0.05304   0.01242   0.00240  18.98065   0.04655  89.11643       19555.00       28256.13     1.15303     1.24859   177.83311     0.18166     0.00000   753.89978   753.89978
    15      129.38341       39.63020    -3     5    -7  -0.18881   0.27920   0.01060  13.62134   0.05948  99.85365         802.00        3001.13     1.56783     1.83251   178.32727     0.10217     0.00000   475.05597   475.05597
    18      438.70267       20.96414    -6     6    -8   0.42992   0.32217   0.01991  17.14048   0.04649 102.15958       14772.00       28726.13     1.21992     1.68594     6.06473     0.21241     0.00000   129.73839   129.73839
    30     1012.72375      601.51776    -9     5    -3   0.05105  -0.15819   0.00467  21.60150   0.05069  68.96287         451.00        2072.13     1.38846     2.03087     7.00106     0.09581     0.00000   699.01276   699.01276
    16      753.60254      232.68645    -7     5    -5  -0.31500   0.17891   0.01496  16.22825   0.05456  88.87654        7070.00       17304.13     1.09226     1.93989   179.94794     0.29885     0.00000   464.01218   464.01218
    22      145.61748      355.23459    -3     7    -7  -0.00601  -0.00941   0.00038  18.13985   0.05245  81.32587        6391.00       16122.13     1.23275     1.89106   179.04778     0.17025     0.00000   145.93414   145.93414
    23      364.76865      259.68839    -5     7    -7  -0.03584  -0.05293   0.00237  18.42542   0.04893  86.88657        8351.00       14414.13     1.20244     1.33930     0.49237     0.17985     0.00000   365.10617   365.10617
    29      784.16559       52.53916   -10     6    -8  -0.05893  -0.13265   0.00474  21.07630   0.03835 100.15428        4658.00        8173.13     1.11737     1.33929   178.66258     0.14421     0.00000   262.00897   262.00897
    32      300.68869       93.01308    -6     8   -10  -0.06095   0.03241   0.00266  21.53501   0.03834  97.33953         582.00        2270.13     1.38601     1.72448     6.55143     0.10343     0.00000   971.95337   971.95337
    24      919.95245      273.21411    -9     5    -5   0.11966  -0.05608   0.00509  19.04871   0.04744  86.63509         764.00        3472.13     1.72106     1.80220    83.90909     0.12694     0.00000   784.07971   784.07971
    26       27.58051      162.47826    -3     7    -9   0.36409   0.06357   0.01235  18.66540   0.04597  92.52468        2824.00        9936.13     1.68894     1.89494    16.51144     0.17587     0.00000   920.13989   920.13989
    25      822.88959       31.33026    -9     5    -7   0.17677  -0.14428   0.00772  18.39856   0.04356 101.33320         755.00        2365.13     1.15182     1.82015   175.86685     0.09590     0.00000   301.02789   301.02789
    27      261.68002       78.66215    -5     7    -9  -0.05510  -0.00745   0.00215  18.85066   0.04354  98.10443        3577.00        8706.13     1.39150     1.64266   166.56296     0.16436     0.00000    27.92496    27.92496
    34      698.76721      226.30576    -9     7    -7   0.04480  -0.08288   0.00333  21.74997   0.04057  89.25154         522.00        2764.24     1.23885     2.33164     5.66252     0.52932     0.00000   615.84363   615.84363
    28      454.66553       47.77420    -7     7    -9   0.00894   0.02304   0.00081  19.89049   0.04053 100.53964        3272.00        9819.13     1.47497     1.93622    73.91715     0.19444     0.00000   823.14453   823.14453
    33      971.55292       85.51940   -11     5    -7  -0.31372  -0.33218   0.01488  21.19092   0.03885  97.71233         593.00        2363.54     1.34287     1.72209    14.62132     0.11165     0.00000   971.97821   971.97821
latticeparameters=   0.54327   0.54482   0.54093  89.94877  90.19350  90.25925
dpsx, dpsy: 179.00000 168.38699
dd, xcent, ycent:      150.57201      540.60303      212.87601
pitch,yaw,roll:  -0.22645   0.61642   0.00000
dev1, dev2, pixdev:   0.01223   0.01205   0.24635
deviatoric strain in crystal reference u1 u2 u3 (*10^3)
   0.50334  -2.26994  -1.68218
  -2.26994   3.33355   0.43774
  -1.68218   0.43774  -3.82388
deviatoric strain in sample reference X Y Z (*10^3)
  -0.24217  -0.90633   0.50601
  -0.90633   4.60205   0.15508
   0.50601   0.15508  -4.34688
deviatoric principal strains (*10^3):   4.76650  -0.33732  -4.41618
deviatoric strain principal axes in sample reference:
  -0.17738   0.98412   0.00690
   0.97596   0.17500   0.12994
  -0.12667  -0.02978   0.99150
deviatoric stress in crystal reference u1 u2 u3 (MPa)
       52.02042     -360.96628     -267.50052
     -360.96628      339.85315       69.60947
     -267.50052       69.60947     -388.05768
deviatoric stress in sample reference X Y Z (MPa)
      -36.57529     -204.17914      -26.29505
     -204.17914      565.42242       19.14719
      -26.29505       19.14719     -525.03125
deviatoric principal stresses (MPa):      628.72693      -98.40197     -526.50909
deviatoric stress principal axes in sample reference:
       -0.29413        0.95550        0.02256
       -0.95444       -0.29488        0.04559
        0.05022       -0.00812        0.99871
total strain in sample reference X Y Z (*10^3)
   1.54657  -0.90633   0.50601
  -0.90633   6.39079   0.15508
   0.50601   0.15508  -2.55814
total principal strains (*10^3):   6.55524   1.45142  -2.62744
total strain principal axes in sample reference:
  -0.17738   0.98412   0.00690
   0.97596   0.17500   0.12994
  -0.12666  -0.02978   0.99150
total stress in crystal reference u1 u2 u3 (MPa)
      577.05170     -360.96628     -267.50052
     -360.96628      864.88440       69.60947
     -267.50052       69.60947      136.97356
total stress in sample reference X Y Z (MPa)
      488.45596     -204.17914      -26.29505
     -204.17914     1090.45361       19.14719
      -26.29505       19.14719        0.00000
total principal stresses (MPa):     1153.75830      426.62927       -1.47787
total stress principal axes in sample reference:
       -0.29413        0.95550        0.02256
       -0.95444       -0.29488        0.04559
        0.05022       -0.00812        0.99871
dilatational strain (*10^-3):        1.78874
hydrostatic stress (MPa):      526.30322
Von Mises stress (MPa):     1011.57367
equivalent strain (*10^-3):        5.31262
equivalent stress (MPa):     1011.57367
maximum resolved shear stress:       20.19897
coordinates of a, b, c in X, Y, Z
   0.44448  -0.20241   0.23857
   0.19245   0.50583   0.06497
  -0.24578   0.03224   0.48109
coordinates of a*, b*, c* in X, Y, Z
   1.50613  -0.67771   0.81484
   0.65592   1.70098   0.22111
  -0.83545   0.10634   1.64676
