\\vmware-host\Shared Folders\Desktop\SiHyperlaueFinal_shielded_results\results_00088.STR
Number of grains:       1
Grain no:       1   Grainlist file index:       1    Number of peaks:      33
no   x(exp)  y(exp)  h  k  l xdev  ydev  angdev  energy  dspace  twotheta  intens   integr  xwidth   ywidth  tilt  rfactor   pearson  xcentroid  ycentroid
     2      392.63483      871.97229    -2     4    -2  -0.32223  -0.11155   0.01870  12.44746   0.11105  53.29224       41700.00      140956.13     1.74186     2.05717   178.60413     0.21007     0.00000   746.65656   746.65656
     5      746.35065      951.25140    -3     3    -1  -0.35619   0.53152   0.02270  11.59317   0.12490  50.69765       40619.00      103005.13     1.58950     1.91045   139.47623     0.20072     0.00000  1026.77234  1026.77234
    13      991.68140      299.61667    -4     2    -2   0.12610  -0.07000   0.00524   8.25850   0.11084  85.25938       38151.00       66035.13     1.22038     1.57122   179.44539     0.22011     0.00000   282.88144   282.88144
     3      546.05676      225.14175    -3     3    -3   0.10512   0.18472   0.00779   8.45263   0.10446  89.19077       29482.00       45725.13     1.24380     1.24405    97.06335     0.18620     0.00000   992.02527   992.02527
     7     1026.45227      909.48975    -5     3    -1  -0.27098   0.26291   0.01365  14.49284   0.09197  55.43463         482.00        1525.12     1.21139     1.53860     3.49103     0.07173     0.00000    62.03078    62.03078
     6      925.00763      683.01428    -6     4    -2   0.09518   0.02319   0.00442  16.08236   0.07268  64.06266       39667.00      104919.13     1.64746     1.91317   136.87390     0.23473     0.00000   925.35376   925.35376
    36       61.83535      407.68558    -1     3    -3   0.22328   0.30165   0.01250   7.85971   0.12446  78.64911           0.00           0.00     0.00000     0.00000     0.00000     0.00000     0.00000     0.00000     0.00000
     4      426.63614      666.11462    -3     5    -3   0.45219  -0.13290   0.02496  14.35935   0.08292  62.75163       55668.00      189145.13     1.81605     1.87384    18.55086     0.22807     0.00000   546.38287   546.38287
    14      648.66724      500.21097    -6     6    -4   0.17398   0.02495   0.00908  18.19088   0.05795  72.04496       13271.00       23345.12     1.20461     1.47145     3.88628     0.18368     0.00000   258.92374   258.92374
     8      668.66687      570.49347    -5     5    -3   0.11747  -0.03602   0.00633  15.64132   0.07079  68.09255       38079.00      181860.13     1.90388     2.85185   175.12369     0.30878     0.00000   426.85370   426.85370
    11      868.12103      257.27634    -5     3    -3   0.07420   0.21568   0.00726  10.82844   0.08280  87.48737       19960.00       58339.13     1.76688     1.91186   156.99887     0.21304     0.00000   868.38428   868.38428
    10      331.59299      270.35736    -4     6    -6  -0.49500  -0.03826   0.02240  15.68215   0.05785  86.21172       52564.00       78778.13     1.08426     1.54258     0.01859     0.19467     0.00000   669.00421   669.00421
     9      282.61334      288.46307    -3     5    -5  -0.42040  -0.03300   0.01868  12.97634   0.07065  85.10152       21561.00       45498.13     1.08993     1.87330   179.96719     0.18971     0.00000   649.01331   649.01331
    19      258.61963      619.58777    -3     7    -5  -0.05264  -0.38550   0.01061  19.09060   0.05964  65.98101       19059.00       37291.13     1.23785     1.68243     6.90463     0.22875     0.00000   129.71693   129.71693
    17      858.89417      567.49835    -7     5    -3   0.16150  -0.26988   0.01087  18.24878   0.05968  69.39256        8067.00       19630.12     1.08921     1.94378   179.91949     0.30082     0.00000   464.01700   464.01700
    31      475.02414      454.83380    -6     8    -6   0.02273   0.05152   0.00198  21.96796   0.04659  74.55662         513.00        2188.12     1.32668     1.97087     7.85546     0.10037     0.00000   698.98199   698.98199
    20      463.66998      498.14581    -5     7    -5   0.36216  -0.12087   0.01926  19.31459   0.05462  71.98250       13645.00       27376.12     1.17176     1.72628   177.83331     0.21407     0.00000   439.07236   439.07236
    22      721.86499      228.63678    -8     6    -6   0.05410   0.01739   0.00248  18.97993   0.04655  89.11562       22638.00       33075.13     1.16108     1.26509   179.00294     0.18983     0.00000   753.89441   753.89441
    15      129.38580       39.62082    -3     5    -7  -0.21678   0.22514   0.01015  13.61999   0.05948  99.85715       13352.00       30791.12     1.58648     1.60859    34.11694     0.22749     0.00000   859.20697   859.20697
    18      438.70001       20.96508    -6     6    -8   0.43387   0.30054   0.01974  17.13933   0.04649 102.16086        9054.00       18230.12     1.23501     1.55636   178.23596     0.20858     0.00000   722.16772   722.16772
    30     1012.70349      601.56226    -9     5    -3   0.03594  -0.16516   0.00453  21.60148   0.05069  68.96065        5147.00        9077.12     1.11804     1.35437   177.06947     0.15189     0.00000   262.03119   262.03119
    16      753.59589      232.69139    -7     5    -5  -0.31616   0.19117   0.01516  16.22771   0.05456  88.87544         911.00        3136.12     1.52369     1.80815   173.69006     0.10575     0.00000   475.03839   475.03839
    21      145.61552      355.20883    -3     7    -7  -0.05057  -0.04824   0.00257  18.13749   0.05245  81.32978        1197.00        3353.12     1.33685     1.61734   172.56528     0.10740     0.00000  1013.00677  1013.00677
    23      364.75604      259.68503    -5     7    -7  -0.04056  -0.09030   0.00345  18.42359   0.04893  86.88917        7186.00       18392.12     1.23663     1.89185   179.15031     0.17733     0.00000   145.93584   145.93584
    29      784.14490       52.55935   -10     6    -8  -0.04153  -0.11885   0.00403  21.07588   0.03835 100.15221        3834.00       11151.12     1.59767     1.71137   102.65685     0.21572     0.00000   823.11993   823.11993
    32      300.68143       92.97396    -6     8   -10  -0.06589   0.02804   0.00280  21.53307   0.03834  97.34219        2580.00        5715.12     1.08709     1.53159     1.50001     0.15344     0.00000   454.99420   454.99420
    24      919.95691      273.24692    -9     5    -5   0.09482  -0.04816   0.00407  19.04858   0.04744  86.63261        9478.00       15933.12     1.20400     1.30931     1.67688     0.18072     0.00000   365.10663   365.10663
    26       27.58034      162.43396    -3     7    -9   0.31455   0.03336   0.01061  18.66322   0.04597  92.52877         788.00        2614.12     1.15454     1.78707   175.47678     0.10940     0.00000   301.03391   301.03391
    25      822.85095       31.36306    -9     5    -7   0.21007  -0.13474   0.00866  18.39830   0.04356 101.33069         869.00        3791.12     1.53623     1.84719   166.11642     0.13732     0.00000   784.09631   784.09631
    27      261.67914       78.66041    -5     7    -9  -0.06881  -0.05379   0.00309  18.84892   0.04354  98.10731        3394.00       11273.12     1.76362     1.81262   102.07888     0.18233     0.00000   920.14203   920.14203
    34      698.75122      226.32317    -9     7    -7   0.05491  -0.09135   0.00383  21.74905   0.04058  89.25096         522.00        2764.24     1.23885     2.33164     5.66252     0.52932     0.00000   615.84363   615.84363
    28      454.66431       47.76889    -7     7    -9   0.01042   0.00867   0.00051  19.88914   0.04053 100.54087        3849.00        9521.12     1.38287     1.70720   170.44301     0.16739     0.00000    27.92868    27.92868
    33      971.55774       85.57718   -11     5    -7  -0.34084  -0.32734   0.01552  21.19099   0.03885  97.70878         633.00        2477.12     1.40380     1.79313    14.14968     0.10993     0.00000   971.95435   971.95435
latticeparameters=   0.54324   0.54486   0.54092  89.94888  90.19467  90.25877
dpsx, dpsy: 179.00000 168.38699
dd, xcent, ycent:      150.57201      540.60303      212.87601
pitch,yaw,roll:  -0.22645   0.61642   0.00000
dev1, dev2, pixdev:   0.01227   0.01210   0.25456
deviatoric strain in crystal reference u1 u2 u3 (*10^3)
   0.43367  -2.26590  -1.69233
  -2.26590   3.41483   0.43676
  -1.69233   0.43676  -3.83522
deviatoric strain in sample reference X Y Z (*10^3)
  -0.27069  -0.85676   0.48432
  -0.85676   4.65979   0.17907
   0.48432   0.17907  -4.37582
deviatoric principal strains (*10^3):   4.80543  -0.35138  -4.44077
deviatoric strain principal axes in sample reference:
  -0.16544   0.98616   0.01051
   0.97870   0.16286   0.12503
  -0.12159  -0.03097   0.99210
deviatoric stress in crystal reference u1 u2 u3 (MPa)
       44.95392     -360.32343     -269.11368
     -360.32343      348.13739       69.45292
     -269.11368       69.45292     -389.19199
deviatoric stress in sample reference X Y Z (MPa)
      -38.90141     -199.08179      -28.77070
     -199.08179      571.19330       21.81970
      -28.77070       21.81970     -528.39258
deviatoric principal stresses (MPa):      631.14032      -97.06241     -530.17865
deviatoric stress principal axes in sample reference:
       -0.28571        0.95799        0.02512
       -0.95677       -0.28664        0.04932
        0.05445       -0.00994        0.99847
total strain in sample reference X Y Z (*10^3)
   1.52951  -0.85676   0.48432
  -0.85676   6.45998   0.17907
   0.48432   0.17907  -2.57563
total principal strains (*10^3):   6.60563   1.44881  -2.64057
total strain principal axes in sample reference:
  -0.16544   0.98616   0.01051
   0.97870   0.16286   0.12503
  -0.12159  -0.03097   0.99210
total stress in crystal reference u1 u2 u3 (MPa)
      573.34650     -360.32343     -269.11368
     -360.32343      876.52997       69.45292
     -269.11368       69.45292      139.20058
total stress in sample reference X Y Z (MPa)
      489.49115     -199.08179      -28.77070
     -199.08179     1099.58582       21.81970
      -28.77070       21.81970        0.00000
total principal stresses (MPa):     1159.53296      431.33017       -1.78605
total stress principal axes in sample reference:
       -0.28571        0.95799        0.02512
       -0.95677       -0.28664        0.04932
        0.05445       -0.00994        0.99847
dilatational strain (*10^-3):        1.80019
hydrostatic stress (MPa):      529.69232
Von Mises stress (MPa):     1016.49658
equivalent strain (*10^-3):        5.35014
equivalent stress (MPa):     1016.49658
maximum resolved shear stress:       14.55174
coordinates of a, b, c in X, Y, Z
   0.44440  -0.20243   0.23851
   0.19251   0.50581   0.06499
  -0.24575   0.03224   0.48106
coordinates of a*, b*, c* in X, Y, Z
   1.50607  -0.67790   0.81480
   0.65599   1.70066   0.22112
  -0.83533   0.10636   1.64670
