\\vmware-host\Shared Folders\Desktop\SiHyperlaueFinal_shielded_results\results_00049.STR
Number of grains:       1
Grain no:       1   Grainlist file index:       1    Number of peaks:      33
no   x(exp)  y(exp)  h  k  l xdev  ydev  angdev  energy  dspace  twotheta  intens   integr  xwidth   ywidth  tilt  rfactor   pearson  xcentroid  ycentroid
     2      392.62402      871.98706    -2     4    -2  -0.32997  -0.11041   0.01913  12.44769   0.11105  53.29166       59222.00      205273.91     1.79561     2.06756   178.23819     0.21267     0.00000   746.62067   746.62067
     5      746.30353      951.28442    -3     3    -1  -0.33244   0.53133   0.02152  11.59354   0.12490  50.69621       49233.00      127595.91     1.62143     1.92992    96.58709     0.19328     0.00000  1026.74585  1026.74585
    13      991.66986      299.61853    -4     2    -2   0.11438  -0.04335   0.00455   8.25867   0.11084  85.25767       49085.00       84966.91     1.23017     1.56635   179.23318     0.22588     0.00000   282.87427   282.87427
     3      546.03394      225.14738    -3     3    -3   0.11632   0.19365   0.00835   8.45277   0.10446  89.18981       38639.00       58562.91     1.23854     1.23910   113.54557     0.18314     0.00000   992.01392   992.01392
     6     1026.42468      909.52124    -5     3    -1  -0.27380   0.26864   0.01382  14.49333   0.09197  55.43278       46707.00      123372.91     1.59458     1.97639   126.28227     0.23586     0.00000   925.34039   925.34039
     7      924.98761      683.06030    -6     4    -2   0.08969   0.00682   0.00417  16.08281   0.07268  64.06097        1078.00        2294.91     1.15543     1.42363   179.53551     0.07637     0.00000    62.01144    62.01144
    36       61.80061      407.68805    -1     3    -3   0.24583   0.29587   0.01306   7.85976   0.12446  78.64935           0.00           0.00     0.00000     0.00000     0.00000     0.00000     0.00000     0.00000     0.00000
     4      426.61792      666.12354    -3     5    -3   0.45361  -0.12784   0.02503  14.35961   0.08292  62.75095       79463.00      262825.91     1.79620     1.87366     5.74880     0.23086     0.00000   546.37451   546.37451
    14      648.66693      500.23627    -6     6    -4   0.15683   0.01911   0.00818  18.19126   0.05795  72.04376       14432.00       25963.91     1.23169     1.47502     4.98539     0.19374     0.00000   258.92014   258.92014
     8      668.66687      570.50970    -5     5    -3   0.09884  -0.03126   0.00533  15.64167   0.07079  68.09130       47816.00      220681.91     1.90147     2.76849   175.36269     0.30494     0.00000   426.82498   426.82498
     9      868.08173      257.31100    -5     3    -3   0.09464   0.20597   0.00740  10.82865   0.08280  87.48582       24940.00       51303.91     1.08951     1.86132     0.05451     0.19649     0.00000   648.99683   648.99683
    11      331.58603      270.35779    -4     6    -6  -0.49823  -0.03177   0.02253  15.68235   0.05785  86.21129       31986.00       87136.91     1.78785     1.82875    27.76975     0.23841     0.00000   868.38440   868.38440
    10      282.60965      288.46609    -3     5    -5  -0.42695  -0.03089   0.01896  12.97649   0.07065  85.10121       62687.00       92750.91     1.08403     1.51741     0.03681     0.19462     0.00000   669.00824   669.00824
    19      258.60971      619.58563    -3     7    -5  -0.05819  -0.37700   0.01049  19.09083   0.05964  65.98078       23875.00       46765.91     1.24520     1.68841     7.21792     0.23741     0.00000   129.69733   129.69733
    17      858.85803      567.52856    -7     5    -3   0.17504  -0.27389   0.01143  18.24923   0.05968  69.39098        8651.00       21763.91     1.08693     1.94886   179.93980     0.30070     0.00000   464.01450   464.01450
    31      474.98148      454.86816    -6     8    -6   0.05084   0.03040   0.00281  21.96833   0.04659  74.55582         543.00        2310.91     1.25769     1.93591     6.24181     0.10679     0.00000   699.03345   699.03345
    20      463.66916      498.17844    -5     7    -5   0.34793  -0.14025   0.01863  19.31492   0.05462  71.98173       15329.00       31131.91     1.17220     1.73046   177.70435     0.22318     0.00000   439.08459   439.08459
    22      721.84149      228.64276    -8     6    -6   0.06278   0.03181   0.00299  18.98027   0.04655  89.11431       26251.00       38890.91     1.17246     1.28904   177.57611     0.19672     0.00000   753.87256   753.87256
    15      129.38054       39.61808    -3     5    -7  -0.21535   0.22660   0.01015  13.62011   0.05948  99.85721       15930.00       34235.91     1.45326     1.59338    47.34707     0.22635     0.00000   859.19659   859.19659
    18      438.70016       20.97066    -6     6    -8   0.42791   0.30617   0.01961  17.13955   0.04649 102.16015       10200.00       20111.91     1.22520     1.50937   177.98534     0.21710     0.00000   722.16254   722.16254
    30     1012.70154      601.58087    -9     5    -3   0.01044  -0.15353   0.00391  21.60205   0.05069  68.95887        5851.00       10247.91     1.11584     1.34599   178.92496     0.16000     0.00000   262.00250   262.00250
    16      753.58728      232.69592    -7     5    -5  -0.32313   0.20804   0.01565  16.22801   0.05456  88.87407         978.00        3391.91     1.58629     1.75515   167.58946     0.11314     0.00000   475.02380   475.02380
    21      145.60712      355.19873    -3     7    -7  -0.05328  -0.03819   0.00251  18.13765   0.05245  81.32982        1332.00        3563.91     1.32949     1.52860   169.73093     0.11263     0.00000  1012.99994  1012.99994
    23      364.74893      259.68469    -5     7    -7  -0.04368  -0.08181   0.00331  18.42383   0.04893  86.88865        8061.00       20873.91     1.25844     1.89600   179.24301     0.17962     0.00000   145.90158   145.90158
    29      784.11029       52.58508   -10     6    -8  -0.01997  -0.12093   0.00380  21.07622   0.03835 100.15080        4295.00       12174.91     1.45686     1.81825    52.83415     0.21893     0.00000   823.12158   823.12158
    32      300.67578       93.02220    -6     8   -10  -0.06634  -0.01459   0.00269  21.53331   0.03834  97.34183        3031.00        6333.91     1.07986     1.51313     0.17904     0.15719     0.00000   454.98407   454.98407
    24      919.90961      273.30832    -9     5    -5   0.12152  -0.08309   0.00548  19.04895   0.04744  86.63099       11007.00       17951.91     1.20121     1.29262     2.89113     0.18197     0.00000   365.09317   365.09317
    26       27.57550      162.42712    -3     7    -9   0.31250   0.03470   0.01054  18.66334   0.04597  92.52907         880.00        2712.91     1.13052     1.83810   178.50302     0.10236     0.00000   301.00049   301.00049
    25      822.85626       31.39583    -9     5    -7   0.19108  -0.14220   0.00814  18.39860   0.04356 101.32922         995.00        4185.91     1.48542     1.82524   163.97739     0.15242     0.00000   784.05225   784.05225
    27      261.68005       78.66075    -5     7    -9  -0.07519  -0.05004   0.00325  18.84912   0.04354  98.10704        3982.00       12369.91     1.62043     1.83821    15.50498     0.19897     0.00000   920.15906   920.15906
    34      698.73883      226.33565    -9     7    -7   0.05301  -0.08417   0.00360  21.74943   0.04058  89.24969         522.00        2764.24     1.23885     2.33164     5.66252     0.52932     0.00000   615.84363   615.84363
    28      454.66510       47.75988    -7     7    -9   0.00299   0.02934   0.00093  19.88941   0.04053 100.54013        4408.00       10945.91     1.38442     1.71910   168.48238     0.18317     0.00000    27.91254    27.91254
    33      971.54401       85.60926   -11     5    -7  -0.34641  -0.32957   0.01572  21.19137   0.03885  97.70712         661.00        2673.91     1.36826     1.74145    15.54316     0.12215     0.00000   971.99249   971.99249
latticeparameters=   0.54324   0.54486   0.54092  89.94878  90.19490  90.25877
dpsx, dpsy: 179.00000 168.38699
dd, xcent, ycent:      150.57201      540.60303      212.87601
pitch,yaw,roll:  -0.22645   0.61642   0.00000
dev1, dev2, pixdev:   0.01228   0.01208   0.25462
deviatoric strain in crystal reference u1 u2 u3 (*10^3)
   0.43904  -2.26588  -1.69433
  -2.26588   3.41167   0.43762
  -1.69433   0.43762  -3.83742
deviatoric strain in sample reference X Y Z (*10^3)
  -0.26677  -0.86001   0.48607
  -0.86001   4.65803   0.17916
   0.48607   0.17916  -4.37798
deviatoric principal strains (*10^3):   4.80488  -0.34832  -4.44328
deviatoric strain principal axes in sample reference:
  -0.16620   0.98604   0.01044
   0.97853   0.16361   0.12531
  -0.12185  -0.03104   0.99206
deviatoric stress in crystal reference u1 u2 u3 (MPa)
       45.49931     -360.32077     -269.43225
     -360.32077      347.81619       69.58969
     -269.43225       69.58969     -389.41617
deviatoric stress in sample reference X Y Z (MPa)
      -38.44289     -199.45200      -28.64314
     -199.45200      571.02960       21.91136
      -28.64314       21.91136     -528.68738
deviatoric principal stresses (MPa):      631.23291      -96.87477     -530.45880
deviatoric stress principal axes in sample reference:
       -0.28634        0.95780        0.02516
       -0.95660       -0.28727        0.04888
        0.05404       -0.01008        0.99849
total strain in sample reference X Y Z (*10^3)
   1.53443  -0.86001   0.48607
  -0.86001   6.45922   0.17916
   0.48607   0.17916  -2.57678
total principal strains (*10^3):   6.60608   1.45288  -2.64209
total strain principal axes in sample reference:
  -0.16620   0.98604   0.01044
   0.97853   0.16361   0.12531
  -0.12185  -0.03104   0.99206
total stress in crystal reference u1 u2 u3 (MPa)
      574.18671     -360.32077     -269.43225
     -360.32077      876.50354       69.58969
     -269.43225       69.58969      139.27122
total stress in sample reference X Y Z (MPa)
      490.24448     -199.45200      -28.64314
     -199.45200     1099.71692       21.91136
      -28.64314       21.91136        0.00000
total principal stresses (MPa):     1159.92029      431.81259       -1.77143
total stress principal axes in sample reference:
       -0.28634        0.95780        0.02516
       -0.95660       -0.28727        0.04888
        0.05404       -0.01008        0.99849
dilatational strain (*10^-3):        1.80120
hydrostatic stress (MPa):      529.98712
Von Mises stress (MPa):     1016.77521
equivalent strain (*10^-3):        5.35107
equivalent stress (MPa):     1016.77521
maximum resolved shear stress:       15.09026
coordinates of a, b, c in X, Y, Z
   0.44441  -0.20245   0.23850
   0.19253   0.50581   0.06499
  -0.24574   0.03225   0.48107
coordinates of a*, b*, c* in X, Y, Z
   1.50606  -0.67795   0.81476
   0.65605   1.70065   0.22112
  -0.83530   0.10637   1.64673
