\\vmware-host\Shared Folders\Desktop\SiHyperlaueFinal_shielded_results\results_00037.STR
Number of grains:       1
Grain no:       1   Grainlist file index:       1    Number of peaks:      33
no   x(exp)  y(exp)  h  k  l xdev  ydev  angdev  energy  dspace  twotheta  intens   integr  xwidth   ywidth  tilt  rfactor   pearson  xcentroid  ycentroid
     2      392.62268      871.98578    -2     4    -2  -0.33017  -0.10962   0.01914  12.44758   0.11105  53.29168       59572.00      204030.05     1.79568     2.06162   178.08278     0.21450     0.00000   746.61737   746.61737
     5      746.30316      951.30164    -3     3    -1  -0.33466   0.51939   0.02152  11.59355   0.12490  50.69599       49105.00      127232.05     1.67390     1.85222   104.70214     0.19816     0.00000  1026.74341  1026.74341
    13      991.66736      299.62405    -4     2    -2   0.11302  -0.03984   0.00447   8.25870   0.11084  85.25714       49302.00       85096.05     1.23315     1.55651   179.18739     0.22796     0.00000   282.87332   282.87332
     3      546.02661      225.15479    -3     3    -3   0.12497   0.18851   0.00850   8.45274   0.10446  89.18967       38831.00       58342.05     1.22488     1.23942   175.01231     0.18004     0.00000   992.00055   992.00055
     6     1026.42346      909.53516    -5     3    -1  -0.27885   0.26206   0.01397  14.49341   0.09197  55.43241       45721.00      122408.05     1.59697     1.96315   111.47155     0.24500     0.00000   925.33502   925.33502
     7      924.97656      683.05884    -6     4    -2   0.09670   0.01526   0.00449  16.08288   0.07268  64.06059        1043.00        2263.05     1.14563     1.40698   179.88467     0.07827     0.00000    62.03155    62.03155
    35       61.79178      407.68689    -1     3    -3   0.25286   0.29142   0.01320   7.85966   0.12446  78.64967           0.00           0.00     0.00000     0.00000     0.00000     0.00000     0.00000     0.00000     0.00000
     4      426.61386      666.12781    -3     5    -3   0.45689  -0.13225   0.02522  14.35950   0.08292  62.75096       79609.00      263664.03     1.79006     1.87490     6.14815     0.23131     0.00000   546.37085   546.37085
    14      648.66730      500.24667    -6     6    -4   0.15590   0.01226   0.00812  18.19123   0.05795  72.04355       14614.00       25869.05     1.22453     1.45063     5.14027     0.19285     0.00000   258.91336   258.91336
     8      668.66687      570.51550    -5     5    -3   0.09788  -0.03324   0.00529  15.64166   0.07079  68.09109       48718.00      221124.05     1.89884     2.74248   175.19292     0.30621     0.00000   426.81976   426.81976
     9      868.07001      257.33224    -5     3    -3   0.10473   0.19228   0.00729  10.82868   0.08280  87.48535       24987.00       50895.05     1.08958     1.85593   179.95892     0.19706     0.00000   648.99976   648.99976
    11      331.58694      270.36124    -4     6    -6  -0.49808  -0.03682   0.02253  15.68222   0.05785  86.21139       32907.00       88444.05     1.65294     1.93524   142.98384     0.22361     0.00000   868.38177   868.38177
    10      282.60818      288.47046    -3     5    -5  -0.42474  -0.03770   0.01888  12.97637   0.07065  85.10136       63650.00       93400.05     1.08424     1.50575   179.92648     0.19274     0.00000   669.00555   669.00555
    19      258.61243      619.59436    -3     7    -5  -0.06219  -0.38851   0.01085  19.09062   0.05964  65.98093       23853.00       46706.05     1.24002     1.68897     7.32813     0.24035     0.00000   129.69363   129.69363
    17      858.86304      567.53564    -7     5    -3   0.16727  -0.27452   0.01116  18.24929   0.05968  69.39061        8693.00       21811.05     1.08546     1.94535   179.84642     0.30251     0.00000   464.01276   464.01276
    31      474.98593      454.82446    -6     8    -6   0.04656   0.07476   0.00335  21.96820   0.04659  74.55578         512.00        2099.05     1.25111     2.01493     2.07482     0.09427     0.00000   699.03949   699.03949
    20      463.66916      498.17609    -5     7    -5   0.34789  -0.13744   0.01861  19.31481   0.05462  71.98171       15045.00       30456.05     1.17230     1.74477   177.44012     0.21655     0.00000   439.07809   439.07809
    22      721.83435      228.64490    -8     6    -6   0.07013   0.03501   0.00333  18.98027   0.04655  89.11396       26299.00       39109.05     1.17017     1.28841   178.93355     0.20038     0.00000   753.86755   753.86755
    15      129.38130       39.61851    -3     5    -7  -0.21421   0.22135   0.01001  13.61997   0.05948  99.85749       16110.00       34549.05     1.45479     1.59034    54.29984     0.22498     0.00000   859.19183   859.19183
    18      438.70074       20.98065    -6     6    -8   0.43041   0.29713   0.01957  17.13946   0.04649 102.16010       10408.00       20260.05     1.22768     1.49212   177.52026     0.21640     0.00000   722.15082   722.15082
    30     1012.69049      601.58124    -9     5    -3   0.01620  -0.14603   0.00378  21.60216   0.05069  68.95842        5865.00       10119.05     1.11441     1.34381   178.80482     0.15573     0.00000   262.01926   262.01926
    16      753.58649      232.69656    -7     5    -5  -0.32245   0.21325   0.01570  16.22802   0.05456  88.87370        1045.00        3251.05     1.50419     1.76915     8.25040     0.10352     0.00000   475.05893   475.05893
    21      145.61081      355.18512    -3     7    -7  -0.05759  -0.02913   0.00256  18.13743   0.05245  81.33008        1382.00        3577.05     1.29473     1.56368   174.59459     0.10790     0.00000  1013.00800  1013.00800
    23      364.75235      259.68652    -5     7    -7  -0.04588  -0.08465   0.00344  18.42370   0.04893  86.88872        7861.00       20676.05     1.24746     1.89727   179.28793     0.18138     0.00000   145.92621   145.92621
    29      784.13184       52.57064   -10     6    -8  -0.04092  -0.09914   0.00348  21.07624   0.03835 100.15035        4516.00       12484.05     1.46493     1.80719    82.42958     0.21456     0.00000   823.14197   823.14197
    33      300.68573       92.99706    -6     8   -10  -0.07396   0.00869   0.00298  21.53314   0.03834  97.34195         690.00        2654.05     1.37667     1.64172    14.83478     0.11814     0.00000   971.97266   971.97266
    24      919.90918      273.31824    -9     5    -5   0.11945  -0.08478   0.00543  19.04902   0.04744  86.63049       10766.00       17873.05     1.19947     1.30075     3.09686     0.18736     0.00000   365.11771   365.11771
    26       27.57267      162.41495    -3     7    -9   0.31512   0.04043   0.01064  18.66312   0.04597  92.52943         842.00        2647.05     1.13593     1.82267   176.93283     0.10649     0.00000   300.98633   300.98633
    25      822.85938       31.40882    -9     5    -7   0.18818  -0.14699   0.00811  18.39863   0.04356 101.32873         954.00        4178.05     1.52517     1.81554   165.37874     0.15209     0.00000   784.09265   784.09265
    27      261.67856       78.65816    -5     7    -9  -0.07139  -0.04998   0.00312  18.84896   0.04354  98.10720        4181.00       12721.05     1.62017     1.81826    17.86867     0.20045     0.00000   920.15198   920.15198
    36      698.73615      226.36243    -9     7    -7   0.05612  -0.10599   0.00423  21.74943   0.04058  89.24937           0.00           0.00     0.00000     0.00000     0.00000     0.00000     0.00000     0.00000     0.00000
    28      454.66660       47.78347    -7     7    -9   0.00433   0.00690   0.00028  19.88931   0.04053 100.54006        4226.00       10730.05     1.40532     1.74325   168.90440     0.17778     0.00000    27.92021    27.92021
    32      971.54108       85.61290   -11     5    -7  -0.34596  -0.32290   0.01558  21.19144   0.03885  97.70653        2884.00        6230.05     1.08453     1.54474   178.48833     0.15667     0.00000   455.01212   455.01212
latticeparameters=   0.54323   0.54486   0.54092  89.94903  90.19510  90.25843
dpsx, dpsy: 179.00000 168.38699
dd, xcent, ycent:      150.57201      540.60303      212.87601
pitch,yaw,roll:  -0.22645   0.61642   0.00000
dev1, dev2, pixdev:   0.01232   0.01210   0.25492
deviatoric strain in crystal reference u1 u2 u3 (*10^3)
   0.43263  -2.26295  -1.69607
  -2.26295   3.41680   0.43541
  -1.69607   0.43541  -3.83614
deviatoric strain in sample reference X Y Z (*10^3)
  -0.26644  -0.85401   0.48271
  -0.85401   4.65938   0.18060
   0.48271   0.18060  -4.37965
deviatoric principal strains (*10^3):   4.80429  -0.34684  -4.44416
deviatoric strain principal axes in sample reference:
  -0.16508   0.98622   0.01072
   0.97883   0.16249   0.12444
  -0.12098  -0.03103   0.99217
deviatoric stress in crystal reference u1 u2 u3 (MPa)
       44.84869     -359.85480     -269.70844
     -359.85480      348.33893       69.23859
     -269.70844       69.23859     -389.28543
deviatoric stress in sample reference X Y Z (MPa)
      -38.19939     -198.70766      -29.02874
     -198.70766      571.04462       22.04578
      -29.02874       22.04578     -528.94305
deviatoric principal stresses (MPa):      630.87073      -96.21014     -530.75836
deviatoric stress principal axes in sample reference:
       -0.28562        0.95801        0.02536
       -0.95678       -0.28657        0.04958
        0.05477       -0.01010        0.99845
total strain in sample reference X Y Z (*10^3)
   1.53563  -0.85401   0.48271
  -0.85401   6.46145   0.18060
   0.48271   0.18060  -2.57758
total principal strains (*10^3):   6.60636   1.45523  -2.64209
total strain principal axes in sample reference:
  -0.16508   0.98622   0.01072
   0.97883   0.16249   0.12444
  -0.12098  -0.03103   0.99217
total stress in crystal reference u1 u2 u3 (MPa)
      573.79175     -359.85480     -269.70844
     -359.85480      877.28192       69.23859
     -269.70844       69.23859      139.65761
total stress in sample reference X Y Z (MPa)
      490.74362     -198.70766      -29.02874
     -198.70766     1099.98767       22.04578
      -29.02874       22.04578        0.00000
total principal stresses (MPa):     1159.81384      432.73285       -1.81534
total stress principal axes in sample reference:
       -0.28562        0.95801        0.02536
       -0.95678       -0.28657        0.04958
        0.05477       -0.01010        0.99845
dilatational strain (*10^-3):        1.80207
hydrostatic stress (MPa):      530.24377
Von Mises stress (MPa):     1016.57782
equivalent strain (*10^-3):        5.35114
equivalent stress (MPa):     1016.57782
maximum resolved shear stress:       14.58298
coordinates of a, b, c in X, Y, Z
   0.44440  -0.20245   0.23850
   0.19254   0.50580   0.06499
  -0.24573   0.03225   0.48106
coordinates of a*, b*, c* in X, Y, Z
   1.50605  -0.67797   0.81476
   0.65605   1.70062   0.22112
  -0.83528   0.10637   1.64672
