\\vmware-host\Shared Folders\Desktop\SiHyperlaueFinal_shielded_results\results_00092.STR
Number of grains:       1
Grain no:       1   Grainlist file index:       1    Number of peaks:      33
no   x(exp)  y(exp)  h  k  l xdev  ydev  angdev  energy  dspace  twotheta  intens   integr  xwidth   ywidth  tilt  rfactor   pearson  xcentroid  ycentroid
     2      392.63593      871.97522    -2     4    -2  -0.31449  -0.11381   0.01827  12.44773   0.11105  53.29217       41524.00      138377.25     1.73507     2.05125   178.62662     0.20955     0.00000   746.65900   746.65900
     5      746.35535      951.25787    -3     3    -1  -0.35758   0.52112   0.02268  11.59335   0.12490  50.69783       40237.00      102160.24     1.59155     1.91044   108.41303     0.18179     0.00000  1026.77368  1026.77368
    13      991.68274      299.61636    -4     2    -2   0.12378  -0.07440   0.00521   8.25852   0.11084  85.25965       38353.00       65692.24     1.21893     1.55590   179.41568     0.21943     0.00000   282.88522   282.88522
     3      546.06049      225.14023    -3     3    -3   0.10139   0.18972   0.00781   8.45273   0.10446  89.19055       29430.00       45632.24     1.24141     1.24693    69.56101     0.18575     0.00000   992.02295   992.02295
     7     1026.45190      909.48975    -5     3    -1  -0.26958   0.25519   0.01352  14.49295   0.09197  55.43494         431.00        1469.24     1.20873     1.60197   177.40804     0.07281     0.00000    62.02886    62.02886
     6      925.00922      683.01477    -6     4    -2   0.09430   0.01914   0.00438  16.08252   0.07268  64.06284       39321.00      103737.24     1.72687     1.83767     5.13302     0.25338     0.00000   925.35071   925.35071
    36       61.86239      407.70490    -1     3    -3   0.20518   0.29024   0.01175   7.85985   0.12446  78.64863           0.00           0.00     0.00000     0.00000     0.00000     0.00000     0.00000     0.00000     0.00000
     4      426.64069      666.11200    -3     5    -3   0.45423  -0.12677   0.02506  14.35965   0.08292  62.75143       55374.00      188408.25     1.81831     1.87266    17.60942     0.22853     0.00000   546.38422   546.38422
    14      648.66718      500.21817    -6     6    -4   0.17598   0.01990   0.00918  18.19116   0.05795  72.04484       13316.00       23310.24     1.20451     1.46174     3.78032     0.18228     0.00000   258.91956   258.91956
     8      668.66699      570.49292    -5     5    -3   0.11961  -0.03389   0.00643  15.64158   0.07079  68.09247       36968.00      179424.25     1.90481     2.87490   175.37291     0.30825     0.00000   426.86014   426.86014
    11      868.11945      257.28122    -5     3    -3   0.07437   0.20843   0.00706  10.82850   0.08280  87.48751       19851.00       57361.24     1.69098     1.98078   110.90046     0.21750     0.00000   868.37714   868.37714
    10      331.59280      270.36096    -4     6    -6  -0.49185  -0.03544   0.02225  15.68239   0.05785  86.21131       51832.00       77993.24     1.08460     1.54894     0.02991     0.19238     0.00000   668.99884   668.99884
     9      282.61414      288.47137    -3     5    -5  -0.41734  -0.03439   0.01855  12.97655   0.07065  85.10109       21448.00       45120.24     1.08975     1.87317   179.95216     0.19154     0.00000   649.00397   649.00397
    19      258.62054      619.59241    -3     7    -5  -0.04450  -0.38538   0.01048  19.09100   0.05964  65.98071       19053.00       37206.24     1.23082     1.68358     6.71050     0.23042     0.00000   129.72153   129.72153
    17      858.89587      567.49658    -7     5    -3   0.16034  -0.26983   0.01082  18.24898   0.05968  69.39266        8185.00       19794.24     1.08856     1.93504     0.05280     0.30096     0.00000   464.01590   464.01590
    31      475.06000      454.82834    -6     8    -6  -0.00941   0.06153   0.00192  21.96835   0.04659  74.55634         477.00        2072.24     1.28657     2.04118     6.11821     0.09574     0.00000   699.03046   699.03046
    20      463.67007      498.13959    -5     7    -5   0.36642  -0.11016   0.01943  19.31495   0.05462  71.98223       13528.00       27458.24     1.17148     1.72725   177.64049     0.21913     0.00000   439.08246   439.08246
    22      721.85333      228.63409    -8     6    -6   0.06453   0.02047   0.00296  18.98009   0.04655  89.11560       22867.00       33297.24     1.15943     1.26874   179.17926     0.18872     0.00000   753.88043   753.88043
    15      129.38367       39.62299    -3     5    -7  -0.21479   0.23156   0.01023  13.62014   0.05948  99.85666       13288.00       30665.24     1.59143     1.61454    34.43923     0.22331     0.00000   859.20532   859.20532
    18      438.70087       20.96574    -6     6    -8   0.43039   0.30372   0.01966  17.13947   0.04649 102.16062        9110.00       18302.24     1.22983     1.52432   178.41727     0.21603     0.00000   722.15717   722.15717
    30     1012.71338      601.55554    -9     5    -3   0.02629  -0.16319   0.00433  21.60162   0.05069  68.96089        5173.00        9066.24     1.12068     1.32936   178.81042     0.15253     0.00000   262.00540   262.00540
    16      753.59430      232.69115    -7     5    -5  -0.31590   0.19122   0.01515  16.22784   0.05456  88.87545         888.00        3076.24     1.50921     1.83111   174.06316     0.10278     0.00000   475.06302   475.06302
    21      145.61380      355.19852    -3     7    -7  -0.04203  -0.03015   0.00198  18.13780   0.05245  81.32931        1222.00        3417.24     1.32718     1.60114   173.12213     0.10943     0.00000  1013.02167  1013.02167
    23      364.76425      259.68607    -5     7    -7  -0.04637  -0.08529   0.00347  18.42386   0.04893  86.88879        7093.00       18455.24     1.24428     1.89887   179.17969     0.17388     0.00000   145.92142   145.92142
    29      784.14276       52.52240   -10     6    -8  -0.04267  -0.08445   0.00312  21.07595   0.03835 100.15238        3764.00       11219.24     1.58302     1.76602    31.72437     0.21754     0.00000   823.13409   823.13409
    32      300.69324       93.04141    -6     8   -10  -0.07786  -0.03295   0.00326  21.53331   0.03834  97.34179        2791.00        5848.24     1.08127     1.48248     2.47232     0.15387     0.00000   454.97043   454.97043
    25      919.92554      273.23904    -9     5    -5   0.12489  -0.04364   0.00518  19.04866   0.04744  86.63281         872.00        3923.24     1.65610     1.86187    84.32613     0.13976     0.00000   784.09583   784.09583
    26       27.56888      162.45010    -3     7    -9   0.32985   0.02704   0.01111  18.66347   0.04597  92.52823         798.00        2670.24     1.14957     1.85585   176.10733     0.10813     0.00000   301.01501   301.01501
    24      822.86591       31.35488    -9     5    -7   0.19166  -0.13027   0.00799  18.39834   0.04356 101.33092        9470.00       16137.24     1.20180     1.33339   179.53214     0.18251     0.00000   365.09970   365.09970
    27      261.67981       78.66439    -5     7    -9  -0.06964  -0.05083   0.00308  18.84913   0.04354  98.10688        3274.00       11096.24     1.65025     1.88489    11.71172     0.18453     0.00000   920.14905   920.14905
    35      698.73602      226.34946    -9     7    -7   0.06898  -0.11682   0.00486  21.74925   0.04058  89.25091           0.00           0.00     0.00000     0.00000     0.00000     0.00000     0.00000     0.00000     0.00000
    28      454.66559       47.75054    -7     7    -9   0.00694   0.03083   0.00101  19.88932   0.04053 100.54063        4012.00        9971.24     1.41560     1.68667   167.17567     0.17374     0.00000    27.91935    27.91935
    33      971.55835       85.57176   -11     5    -7  -0.34376  -0.32827   0.01562  21.19099   0.03885  97.70916         611.00        2393.24     1.35202     1.70819    15.80263     0.11208     0.00000   971.96478   971.96478
latticeparameters=   0.54324   0.54485   0.54092  89.94900  90.19378  90.25758
dpsx, dpsy: 179.00000 168.38699
dd, xcent, ycent:      150.57201      540.60303      212.87601
pitch,yaw,roll:  -0.22645   0.61642   0.00000
dev1, dev2, pixdev:   0.01225   0.01207   0.25450
deviatoric strain in crystal reference u1 u2 u3 (*10^3)
   0.44263  -2.25547  -1.68460
  -2.25547   3.39864   0.43575
  -1.68460   0.43575  -3.82807
deviatoric strain in sample reference X Y Z (*10^3)
  -0.26457  -0.85654   0.49053
  -0.85654   4.63950   0.17650
   0.49053   0.17650  -4.36173
deviatoric principal strains (*10^3):   4.78573  -0.34435  -4.42817
deviatoric strain principal axes in sample reference:
  -0.16625   0.98603   0.01011
   0.97835   0.16366   0.12665
  -0.12323  -0.03095   0.99190
deviatoric stress in crystal reference u1 u2 u3 (MPa)
       45.85996     -358.66418     -267.88467
     -358.66418      346.48621       69.29237
     -267.88467       69.29237     -388.46991
deviatoric stress in sample reference X Y Z (MPa)
      -38.23678     -198.57191      -27.76283
     -198.57191      568.68243       21.58350
      -27.76283       21.58350     -526.56940
deviatoric principal stresses (MPa):      628.58685      -96.46320     -528.24744
deviatoric stress principal axes in sample reference:
       -0.28626        0.95783        0.02478
       -0.95671       -0.28715        0.04734
        0.05246       -0.01015        0.99857
total strain in sample reference X Y Z (*10^3)
   1.52941  -0.85654   0.49053
  -0.85654   6.43348   0.17650
   0.49053   0.17650  -2.56774
total principal strains (*10^3):   6.57971   1.44963  -2.63419
total strain principal axes in sample reference:
  -0.16625   0.98603   0.01011
   0.97835   0.16366   0.12665
  -0.12323  -0.03095   0.99190
total stress in crystal reference u1 u2 u3 (MPa)
      572.42938     -358.66418     -267.88467
     -358.66418      873.05560       69.29237
     -267.88467       69.29237      138.09949
total stress in sample reference X Y Z (MPa)
      488.33264     -198.57191      -27.76283
     -198.57191     1095.25183       21.58350
      -27.76283       21.58350        0.00000
total principal stresses (MPa):     1155.15625      430.10620       -1.67801
total stress principal axes in sample reference:
       -0.28626        0.95783        0.02478
       -0.95671       -0.28715        0.04734
        0.05246       -0.01015        0.99857
dilatational strain (*10^-3):        1.79398
hydrostatic stress (MPa):      527.86151
Von Mises stress (MPa):     1012.52185
equivalent strain (*10^-3):        5.33107
equivalent stress (MPa):     1012.52185
maximum resolved shear stress:       15.02874
coordinates of a, b, c in X, Y, Z
   0.44441  -0.20242   0.23853
   0.19251   0.50581   0.06498
  -0.24575   0.03225   0.48107
coordinates of a*, b*, c* in X, Y, Z
   1.50607  -0.67788   0.81481
   0.65597   1.70072   0.22110
  -0.83536   0.10638   1.64668
