\\vmware-host\Shared Folders\Desktop\SiHyperlaueFinal_shielded_results\results_00017.STR
Number of grains:       1
Grain no:       1   Grainlist file index:       1    Number of peaks:      33
no   x(exp)  y(exp)  h  k  l xdev  ydev  angdev  energy  dspace  twotheta  intens   integr  xwidth   ywidth  tilt  rfactor   pearson  xcentroid  ycentroid
     2      392.61914      871.98145    -2     4    -2  -0.33153  -0.09700   0.01917  12.44799   0.11105  53.29136       75559.00      263264.59     1.81524     2.06442   178.00124     0.21669     0.00000   746.60229   746.60229
     4      746.28265      951.30432    -3     3    -1  -0.32507   0.53099   0.02115  11.59393   0.12490  50.69536      107829.00      350925.59     1.78337     1.87234     1.01792     0.23258     0.00000   546.37451   546.37451
    13      991.65796      299.61972    -4     2    -2   0.11890  -0.02366   0.00458   8.25877   0.11084  85.25645       60018.00      103813.59     1.23520     1.55592   178.91344     0.23228     0.00000   282.87030   282.87030
     3      546.02124      225.15182    -3     3    -3   0.12591   0.19922   0.00879   8.45284   0.10446  89.18916       50977.00       76005.59     1.23269     1.23569    17.07209     0.18284     0.00000   991.97992   991.97992
     6     1026.41370      909.55188    -5     3    -1  -0.28146   0.26344   0.01409  14.49379   0.09197  55.43154       49563.00      134263.59     1.62721     1.93535   102.07919     0.25217     0.00000   925.33325   925.33325
     7      924.96838      683.08038    -6     4    -2   0.09493   0.00899   0.00441  16.08324   0.07268  64.05975        2511.00        4445.59     1.14627     1.40771     1.28163     0.09951     0.00000    62.05424    62.05424
    29       61.78913      407.68579    -1     3    -3   0.25377   0.29622   0.01331   7.85980   0.12446  78.64947        4881.00       13453.59     1.43266     1.74256    89.14446     0.23469     0.00000   823.11957   823.11957
     5      426.60751      666.13599    -3     5    -3   0.45805  -0.13039   0.02528  14.35993   0.08292  62.75046       55187.00      144002.59     1.65922     1.86338   106.60186     0.19687     0.00000  1026.73364  1026.73364
    15      648.66718      500.26782    -6     6    -4   0.14899   0.00281   0.00776  18.19164   0.05795  72.04284       17501.00       36845.59     1.43783     1.57544    67.53989     0.22787     0.00000   859.19519   859.19519
    10      668.66681      570.52478    -5     5    -3   0.09023  -0.03014   0.00487  15.64204   0.07079  68.09037       70630.00      103054.59     1.08379     1.49066   179.96443     0.19428     0.00000   668.99939   668.99939
     8      868.06390      257.35464    -5     3    -3   0.10674   0.18006   0.00705  10.82877   0.08280  87.48472       56519.00      251737.59     1.89780     2.70659   175.22591     0.30553     0.00000   426.80707   426.80707
    12      331.58554      270.36459    -4     6    -6  -0.50039  -0.03364   0.02263  15.68247   0.05785  86.21097       37812.00       80387.59     1.29272     1.73903   178.23456     0.24902     0.00000   331.84055   331.84055
     9      282.60754      288.47098    -3     5    -5  -0.42754  -0.03204   0.01899  12.97659   0.07065  85.10098       27083.00       53936.59     1.08928     1.84056   179.97498     0.20087     0.00000   649.00397   649.00397
    19      258.60858      619.58978    -3     7    -5  -0.06107  -0.37682   0.01054  19.09113   0.05964  65.98058       28419.00       55514.59     1.23857     1.68852     7.11814     0.24524     0.00000   129.68343   129.68343
    17      858.85272      567.54492    -7     5    -3   0.16900  -0.27004   0.01114  18.24966   0.05968  69.38981        9047.00       23252.59     1.08704     1.95212     0.02137     0.30158     0.00000   464.00934   464.00934
    32      474.96234      454.87582    -6     8    -6   0.06494   0.03328   0.00353  21.96870   0.04659  74.55519        3184.00        6845.59     1.07683     1.50466   179.37646     0.17022     0.00000   455.00458   455.00458
    20      463.66870      498.19220    -5     7    -5   0.34311  -0.14349   0.01840  19.31528   0.05462  71.98112       16263.00       33462.59     1.17279     1.75335   177.68726     0.22348     0.00000   439.08545   439.08545
    22      721.84137      228.64622    -8     6    -6   0.05865   0.04251   0.00296  18.98046   0.04655  89.11340       28413.00       43040.59     1.18066     1.30030   179.02733     0.20886     0.00000   753.85364   753.85364
    14      129.38083       39.61980    -3     5    -7  -0.21833   0.22039   0.01010  13.62006   0.05948  99.85745       15310.00       27244.59     1.23234     1.46276     5.10710     0.19395     0.00000   258.90192   258.90192
    18      438.70059       20.98808    -6     6    -8   0.42726   0.29255   0.01939  17.13955   0.04649 102.15992       10886.00       21161.59     1.21445     1.50229   179.18591     0.21910     0.00000   722.16736   722.16736
    31     1012.68878      601.61200    -9     5    -3   0.00931  -0.16118   0.00409  21.60255   0.05069  68.95756         569.00        2252.59     1.27954     1.95445     7.20068     0.10431     0.00000   699.00580   699.00580
    16      753.58173      232.70137    -7     5    -5  -0.32211   0.21750   0.01574  16.22818   0.05456  88.87312        1067.00        3511.59     1.59781     1.70811   164.20554     0.11610     0.00000   475.05014   475.05014
    21      145.60506      355.19507    -3     7    -7  -0.05432  -0.03421   0.00250  18.13775   0.05245  81.32981        1441.00        3743.59     1.29807     1.52042   172.95628     0.11348     0.00000  1013.00275  1013.00275
    23      364.75101      259.68796    -5     7    -7  -0.04842  -0.07934   0.00339  18.42398   0.04893  86.88829        8438.00       22063.59     1.26284     1.89429   179.07661     0.18589     0.00000   145.89835   145.89835
    30      784.14282       52.55674   -10     6    -8  -0.05320  -0.07964   0.00326  21.07629   0.03835 100.15001        6289.00       10794.59     1.11932     1.34280   177.20918     0.15971     0.00000   262.01721   262.01721
    33      300.67303       93.01293    -6     8   -10  -0.06501  -0.00385   0.00261  21.53333   0.03834  97.34173         699.00        2636.59     1.42113     1.60107    16.29238     0.11867     0.00000   971.99182   971.99182
    25      919.89252      273.33224    -9     5    -5   0.13223  -0.08797   0.00593  19.04918   0.04744  86.62984         933.00        4216.59     1.58108     1.85538   159.74745     0.15108     0.00000   784.09491   784.09491
    26       27.56932      162.42413    -3     7    -9   0.31453   0.03252   0.01060  18.66331   0.04597  92.52935         890.00        2867.59     1.14130     1.82126   176.51489     0.11372     0.00000   300.98770   300.98770
    24      822.84338       31.43641    -9     5    -7   0.20379  -0.16929   0.00894  18.39865   0.04356 101.32841       11804.00       19345.59     1.20266     1.29714     1.69050     0.18704     0.00000   365.10461   365.10461
    27      261.68091       78.65853    -5     7    -9  -0.07758  -0.04772   0.00331  18.84911   0.04354  98.10703        4471.00       13113.59     1.59807     1.80705    12.60878     0.19580     0.00000   920.12872   920.12872
    36      698.73889      226.37669    -9     7    -7   0.04889  -0.11161   0.00420  21.74966   0.04058  89.24881           0.00           0.00     0.00000     0.00000     0.00000     0.00000     0.00000     0.00000     0.00000
    28      454.66696       47.76843    -7     7    -9   0.00060   0.02555   0.00080  19.88943   0.04053 100.53983        4636.00       11585.59     1.39778     1.73883   168.86185     0.18146     0.00000    27.92780    27.92780
    34      971.53705       85.60359   -11     5    -7  -0.34100  -0.30600   0.01514  21.19146   0.03885  97.70609         522.00        2764.24     1.23885     2.33164     5.66252     0.52932     0.00000   615.84363   615.84363
latticeparameters=   0.54324   0.54484   0.54093  89.94928  90.19377  90.25787
dpsx, dpsy: 179.00000 168.38699
dd, xcent, ycent:      150.57201      540.60303      212.87601
pitch,yaw,roll:  -0.22645   0.61642   0.00000
dev1, dev2, pixdev:   0.01232   0.01208   0.25473
deviatoric strain in crystal reference u1 u2 u3 (*10^3)
   0.44689  -2.25794  -1.68450
  -2.25794   3.38705   0.43335
  -1.68450   0.43335  -3.82079
deviatoric strain in sample reference X Y Z (*10^3)
  -0.26252  -0.86213   0.48725
  -0.86213   4.63172   0.17201
   0.48725   0.17201  -4.35606
deviatoric principal strains (*10^3):   4.77998  -0.34530  -4.42154
deviatoric strain principal axes in sample reference:
  -0.16762   0.98581   0.00962
   0.97821   0.16509   0.12592
  -0.12254  -0.03052   0.99199
deviatoric stress in crystal reference u1 u2 u3 (MPa)
       46.28852     -359.05692     -267.86948
     -359.05692      345.30313       68.91167
     -267.86948       68.91167     -387.73453
deviatoric stress in sample reference X Y Z (MPa)
      -38.09487     -199.16583      -28.16953
     -199.16583      567.98267       20.97008
      -28.16953       20.97008     -526.03070
deviatoric principal stresses (MPa):      628.26013      -96.66253     -527.74048
deviatoric stress principal axes in sample reference:
       -0.28723        0.95755        0.02441
       -0.95636       -0.28812        0.04867
        0.05364       -0.00936        0.99852
total strain in sample reference X Y Z (*10^3)
   1.52963  -0.86213   0.48725
  -0.86213   6.42386   0.17201
   0.48725   0.17201  -2.56391
total principal strains (*10^3):   6.57213   1.44685  -2.62940
total strain principal axes in sample reference:
  -0.16762   0.98581   0.00962
   0.97821   0.16509   0.12592
  -0.12254  -0.03052   0.99199
total stress in crystal reference u1 u2 u3 (MPa)
      572.31921     -359.05692     -267.86948
     -359.05692      871.33380       68.91167
     -267.86948       68.91167      138.29617
total stress in sample reference X Y Z (MPa)
      487.93582     -199.16583      -28.16953
     -199.16583     1094.01343       20.97008
      -28.16953       20.97008        0.00000
total principal stresses (MPa):     1154.29077      429.36816       -1.70977
total stress principal axes in sample reference:
       -0.28723        0.95755        0.02441
       -0.95636       -0.28812        0.04867
        0.05364       -0.00936        0.99852
dilatational strain (*10^-3):        1.79215
hydrostatic stress (MPa):      527.31641
Von Mises stress (MPa):     1011.84937
equivalent strain (*10^-3):        5.32400
equivalent stress (MPa):     1011.84937
maximum resolved shear stress:       15.51978
coordinates of a, b, c in X, Y, Z
   0.44442  -0.20245   0.23851
   0.19254   0.50579   0.06497
  -0.24573   0.03226   0.48108
coordinates of a*, b*, c* in X, Y, Z
   1.50607  -0.67797   0.81474
   0.65608   1.70071   0.22109
  -0.83528   0.10642   1.64672
