\\vmware-host\Shared Folders\Desktop\SiHyperlaueFinal_shielded_results\results_00119.STR
Number of grains:       1
Grain no:       1   Grainlist file index:       1    Number of peaks:      32
no   x(exp)  y(exp)  h  k  l xdev  ydev  angdev  energy  dspace  twotheta  intens   integr  xwidth   ywidth  tilt  rfactor   pearson  xcentroid  ycentroid
     2      392.64178      872.01886    -2     4    -2  -0.29714  -0.11976   0.01732  12.44974   0.11103  53.29049       28297.00       87423.25     1.67301     2.03045   178.44264     0.21366     0.00000   746.68689   746.68689
     6      746.39642      951.31183    -3     3    -1  -0.39179   0.50069   0.02425  11.59458   0.12489  50.69660       33197.00       87456.25     1.67045     1.88387    32.52019     0.23869     0.00000   925.35577   925.35577
    14      991.68579      299.61719    -4     2    -2   0.14053  -0.09567   0.00606   8.25870   0.11083  85.26088       11894.00       27556.25     1.50108     1.67598    70.10874     0.21582     0.00000   859.20813   859.20813
     4      546.07129      225.16788    -3     3    -3   0.08941   0.17905   0.00720   8.45351   0.10445  89.18944       38306.00      136978.25     1.82670     1.87999    18.65892     0.22462     0.00000   546.38446   546.38446
     7     1026.48108      909.52606    -5     3    -1  -0.27528   0.24305   0.01365  14.49370   0.09196  55.43432       29853.00      145384.25     1.90826     2.93397   175.55518     0.31042     0.00000   426.88959   426.88959
     5      925.01471      683.00183    -6     4    -2   0.10241   0.04267   0.00480  16.08339   0.07267  64.06247       31634.00       79119.25     1.57183     1.83495   167.92041     0.22465     0.00000  1026.77673  1026.77673
     3      426.65335      666.12817    -3     5    -3   0.45797  -0.10627   0.02523  14.36177   0.08291  62.74950       23812.00       37563.25     1.24249     1.24418   139.48015     0.18952     0.00000   992.02930   992.02930
    12      648.66748      500.20847    -6     6    -4   0.17840   0.04933   0.00939  18.19290   0.05794  72.04369       30858.00       51509.25     1.21210     1.51197   179.31628     0.21195     0.00000   282.89774   282.89774
     8      668.66693      570.50043    -5     5    -3   0.12320  -0.02024   0.00657  15.64309   0.07079  68.09130       18997.00       40698.25     1.08995     1.87964     0.00000     0.18974     0.00000   649.00317   649.00317
    13      868.12238      257.28622    -5     3    -3   0.07849   0.19056   0.00666  10.82890   0.08279  87.48831       12196.00       20966.25     1.19269     1.43985     3.52215     0.17574     0.00000   258.93314   258.93314
     9      331.59558      270.37671    -4     6    -6  -0.48125  -0.01610   0.02174  15.68439   0.05784  86.20909       44430.00       66249.25     1.08367     1.52867   179.89523     0.19139     0.00000   668.99811   668.99811
    10      282.61615      288.49350    -3     5    -5  -0.40043  -0.01859   0.01777  12.97829   0.07064  85.09871       12834.00       37630.25     1.77148     1.89742   161.36867     0.20184     0.00000   868.33960   868.33960
    19      258.62497      619.59674    -3     7    -5  -0.01560  -0.35220   0.00929  19.09411   0.05963  65.97853       12098.00       24368.25     1.17523     1.72315   177.63034     0.20977     0.00000   439.09055   439.09055
    17      858.90320      567.49817    -7     5    -3   0.16150  -0.26413   0.01076  18.25005   0.05968  69.39233        8005.00       16382.25     1.23714     1.57276   178.21600     0.20422     0.00000   722.15839   722.15839
    31      475.05249      454.87256    -6     8    -6   0.00632   0.04782   0.00149  21.97108   0.04659  74.55449        2492.00        5479.25     1.08129     1.46589     1.29261     0.15557     0.00000   454.98465   454.98465
    20      463.67068      498.14633    -5     7    -5   0.37578  -0.08469   0.01983  19.31746   0.05461  71.98032        1108.00        3099.25     1.33413     1.60673   171.90736     0.10203     0.00000  1013.00568  1013.00568
    22      721.87592      228.63522    -8     6    -6   0.04078   0.01909   0.00192  18.98124   0.04655  89.11561        6567.00       16860.25     1.23873     1.89021   179.57782     0.17102     0.00000   145.93317   145.93317
    15      129.39326       39.62950    -3     5    -7  -0.20150   0.26976   0.01069  13.62183   0.05947  99.85421         786.00        3062.25     1.55776     1.81794   178.21492     0.11094     0.00000   475.04297   475.04297
    18      438.70163       20.96407    -6     6    -8   0.42492   0.32356   0.01976  17.14102   0.04649 102.15948       15968.00       30513.25     1.21527     1.67086     6.02432     0.21488     0.00000   129.74217   129.74217
    30     1012.70868      601.56354    -9     5    -3   0.05321  -0.17004   0.00499  21.60237   0.05069  68.96105         447.00        1949.25     1.31758     1.99159     8.15785     0.09135     0.00000   699.02087   699.02087
    16      753.59711      232.68959    -7     5    -5  -0.31874   0.18959   0.01524  16.22874   0.05456  88.87566        7431.00       18251.25     1.09169     1.94850     0.15302     0.30077     0.00000   464.01443   464.01443
    21      145.61594      355.21317    -3     7    -7  -0.00538  -0.00306   0.00024  18.14053   0.05244  81.32676       20197.00       29374.25     1.15599     1.26263   178.34836     0.18438     0.00000   753.89185   753.89185
    23      364.76590      259.68701    -5     7    -7  -0.03798  -0.05344   0.00245  18.42612   0.04893  86.88669        8633.00       14527.25     1.20158     1.33346     0.68566     0.17287     0.00000   365.10480   365.10480
    29      784.10852       52.57266   -10     6    -8  -0.00977  -0.15388   0.00472  21.07679   0.03835 100.15355        4790.00        8420.25     1.11530     1.32984   177.40431     0.15040     0.00000   261.99811   261.99811
    33      300.68121       92.99537    -6     8   -10  -0.05793   0.04659   0.00276  21.53576   0.03833  97.33974         610.00        2434.22     1.36405     1.79847    16.01220     0.11308     0.00000   971.97046   971.97046
    25      919.94922      273.24078    -9     5    -5   0.11296  -0.06186   0.00490  19.04924   0.04744  86.63382         784.00        2279.25     1.12219     1.84223   177.19678     0.08926     0.00000   301.00589   301.00589
    26       27.57196      162.46054    -3     7    -9   0.37208   0.06494   0.01262  18.66608   0.04597  92.52559        3011.00       10238.25     1.68203     1.87941    13.37839     0.17550     0.00000   920.15924   920.15924
    24      822.89691       31.31871    -9     5    -7   0.16176  -0.11965   0.00688  18.39895   0.04356 101.33245         841.00        3639.25     1.49117     1.82002   165.59428     0.14077     0.00000   784.10638   784.10638
    27      261.68002       78.66752    -5     7    -9  -0.05917  -0.01782   0.00235  18.85133   0.04354  98.10472        3542.00        8688.25     1.40529     1.66612   167.39989     0.16423     0.00000    27.92032    27.92032
    35      698.74719      226.32135    -9     7    -7   0.05604  -0.08675   0.00375  21.75065   0.04057  89.25078           0.00           0.00     0.00000     0.00000     0.00000     0.00000     0.00000     0.00000     0.00000
    28      454.66470       47.75165    -7     7    -9   0.00360   0.04758   0.00150  19.89112   0.04052 100.53950        3291.00       10273.25     1.52842     1.94150    70.85312     0.19482     0.00000   823.11694   823.11694
    32      971.55731       85.57468   -11     5    -7  -0.32575  -0.36862   0.01593  21.19133   0.03885  97.71126         613.00        2419.25     1.38938     1.62021     9.37455     0.11114     0.00000   971.96991   971.96991
latticeparameters=   0.54329   0.54480   0.54092  89.94770  90.19146  90.25795
dpsx, dpsy: 179.00000 168.38699
dd, xcent, ycent:      150.57201      540.60303      212.87601
pitch,yaw,roll:  -0.22645   0.61642   0.00000
dev1, dev2, pixdev:   0.01227   0.01211   0.24832
deviatoric strain in crystal reference u1 u2 u3 (*10^3)
   0.53276  -2.25848  -1.66438
  -2.25848   3.30994   0.44717
  -1.66438   0.44717  -3.82974
deviatoric strain in sample reference X Y Z (*10^3)
  -0.23617  -0.91575   0.53273
  -0.91575   4.57817   0.15368
   0.53273   0.15368  -4.32904
deviatoric principal strains (*10^3):   4.74681  -0.32839  -4.40546
deviatoric strain principal axes in sample reference:
  -0.18012   0.98363   0.00608
   0.97457   0.17761   0.13660
  -0.13328  -0.03053   0.99061
deviatoric stress in crystal reference u1 u2 u3 (MPa)
       55.01014     -359.14307     -264.66925
     -359.14307      337.44952       71.10938
     -264.66925       71.10938     -388.65567
deviatoric stress in sample reference X Y Z (MPa)
      -36.51089     -204.72417      -22.72526
     -204.72417      562.54950       19.37568
      -22.72526       19.37568     -522.23462
deviatoric principal stresses (MPa):      626.38232      -99.18649     -523.39178
deviatoric stress principal axes in sample reference:
       -0.29570        0.95503        0.02196
       -0.95434       -0.29635        0.03769
        0.04250       -0.00981        0.99905
total strain in sample reference X Y Z (*10^3)
   1.54304  -0.91575   0.53273
  -0.91575   6.35739   0.15368
   0.53273   0.15368  -2.54983
total principal strains (*10^3):   6.52602   1.45082  -2.62624
total strain principal axes in sample reference:
  -0.18012   0.98363   0.00608
   0.97457   0.17761   0.13660
  -0.13328  -0.03053   0.99061
total stress in crystal reference u1 u2 u3 (MPa)
      577.24475     -359.14307     -264.66925
     -359.14307      859.68414       71.10938
     -264.66925       71.10938      133.57896
total stress in sample reference X Y Z (MPa)
      485.72375     -204.72417      -22.72526
     -204.72417     1084.78418       19.37568
      -22.72526       19.37568        0.00000
total principal stresses (MPa):     1148.61694      423.04813       -1.15715
total stress principal axes in sample reference:
       -0.29570        0.95503        0.02196
       -0.95434       -0.29635        0.03769
        0.04250       -0.00981        0.99905
dilatational strain (*10^-3):        1.77921
hydrostatic stress (MPa):      523.50262
Von Mises stress (MPa):     1007.07019
equivalent strain (*10^-3):        5.29453
equivalent stress (MPa):     1007.07019
maximum resolved shear stress:       21.85918
coordinates of a, b, c in X, Y, Z
   0.44451  -0.20241   0.23858
   0.19246   0.50583   0.06497
  -0.24576   0.03225   0.48112
coordinates of a*, b*, c* in X, Y, Z
   1.50616  -0.67772   0.81478
   0.65595   1.70108   0.22105
  -0.83546   0.10637   1.64682
