\\vmware-host\Shared Folders\Desktop\SiHyperlaueFinal_shielded_results\results_00003.STR
Number of grains:       1
Grain no:       1   Grainlist file index:       1    Number of peaks:      33
no   x(exp)  y(exp)  h  k  l xdev  ydev  angdev  energy  dspace  twotheta  intens   integr  xwidth   ywidth  tilt  rfactor   pearson  xcentroid  ycentroid
     3      392.61523      871.98132    -2     4    -2  -0.33094  -0.10570   0.01917  12.44827   0.11104  53.29174       51758.00       76603.45     1.22214     1.23880   166.33569     0.18085     0.00000   991.98730   991.98730
     4      746.25977      951.29065    -3     3    -1  -0.31228   0.54704   0.02069  11.59422   0.12490  50.69519      108636.00      356070.47     1.77898     1.87504     2.42940     0.23300     0.00000   546.37097   546.37097
    13      991.65729      299.62451    -4     2    -2   0.11104  -0.01927   0.00427   8.25889   0.11084  85.25589       60549.00      105187.45     1.23944     1.56088   179.01483     0.23290     0.00000   282.86685   282.86685
     2      546.01642      225.15964    -3     3    -3   0.12636   0.19537   0.00871   8.45301   0.10446  89.18890       73849.00      258931.45     1.83102     2.05162   168.11504     0.21818     0.00000   746.59528   746.59528
     6     1026.40210      909.56415    -5     3    -1  -0.28338   0.26151   0.01415  14.49413   0.09196  55.43096       49705.00      135109.45     1.65737     1.89583   102.69107     0.25048     0.00000   925.32550   925.32550
     7      924.95532      683.09290    -6     4    -2   0.09672   0.00488   0.00450  16.08359   0.07268  64.05923        2488.00        4415.46     1.14348     1.43433     0.38859     0.09781     0.00000    62.07392    62.07392
    29       61.80526      407.68298    -1     3    -3   0.24012   0.29109   0.01280   7.85995   0.12446  78.64990        5089.00       13667.46     1.44237     1.73338    81.76243     0.22740     0.00000   823.14063   823.14063
     5      426.60272      666.14325    -3     5    -3   0.45906  -0.14005   0.02535  14.36028   0.08292  62.75059       54596.00      143898.45     1.63947     1.89270   107.47662     0.19313     0.00000  1026.72778  1026.72778
    15      648.66681      500.27448    -6     6    -4   0.14238   0.00071   0.00741  18.19207   0.05795  72.04256       18223.00       37672.46     1.44620     1.52672    75.99484     0.22904     0.00000   859.19897   859.19897
    10      668.66687      570.53381    -5     5    -3   0.08261  -0.03471   0.00450  15.64242   0.07079  68.09009       72598.00      104897.45     1.08395     1.47492     0.00654     0.19195     0.00000   668.99878   668.99878
     8      868.05292      257.37210    -5     3    -3   0.11014   0.17028   0.00691  10.82894   0.08280  87.48424       57948.00      254749.45     1.89614     2.68424   175.47881     0.30427     0.00000   426.80234   426.80234
    12      331.58420      270.36603    -4     6    -6  -0.50068  -0.03481   0.02264  15.68280   0.05785  86.21096       38196.00       81297.45     1.29570     1.73532   178.11237     0.25116     0.00000   331.84232   331.84232
     9      282.60577      288.46820    -3     5    -5  -0.42671  -0.03011   0.01895  12.97686   0.07064  85.10103       28111.00       55407.46     1.08835     1.83476   179.98045     0.20160     0.00000   649.00916   649.00916
    19      258.60724      619.59143    -3     7    -5  -0.06033  -0.38505   0.01073  19.09156   0.05964  65.98093       28965.00       56858.46     1.24424     1.69243     7.14667     0.24453     0.00000   129.67998   129.67998
    17      858.84888      567.55792    -7     5    -3   0.16293  -0.27549   0.01102  18.25005   0.05968  69.38933        9334.00       23933.46     1.08685     1.94849   179.93922     0.30290     0.00000   464.01013   464.01013
    32      474.95834      454.87097    -6     8    -6   0.06475   0.03985   0.00359  21.96923   0.04659  74.55509        3229.00        6756.46     1.07589     1.50126   179.44148     0.16603     0.00000   454.97772   454.97772
    20      463.66867      498.18747    -5     7    -5   0.33902  -0.13770   0.01816  19.31575   0.05461  71.98106       16448.00       33950.46     1.17576     1.76391   177.58511     0.22083     0.00000   439.09537   439.09537
    22      721.82935      228.64960    -8     6    -6   0.06442   0.04521   0.00323  18.98079   0.04655  89.11300       28973.00       44062.46     1.18477     1.30502   179.04793     0.21066     0.00000   753.85278   753.85278
    14      129.37845       39.61799    -3     5    -7  -0.21523   0.21934   0.01000  13.62029   0.05948  99.85762       15500.00       27584.46     1.23692     1.45856     5.57472     0.19562     0.00000   258.90625   258.90625
    18      438.70181       20.99639    -6     6    -8   0.42368   0.28648   0.01918  17.13983   0.04649 102.15978       11515.00       21621.46     1.21299     1.48122   177.68076     0.21291     0.00000   722.15680   722.15680
    31     1012.67969      601.61005    -9     5    -3   0.00700  -0.14929   0.00377  21.60297   0.05069  68.95695         567.00        2235.46     1.21791     1.89428     1.97748     0.10143     0.00000   699.00165   699.00165
    16      753.57953      232.70367    -7     5    -5  -0.32647   0.22163   0.01597  16.22845   0.05456  88.87271        1048.00        3450.46     1.60997     1.70405   163.40744     0.11366     0.00000   475.05692   475.05692
    21      145.60196      355.18573    -3     7    -7  -0.05010  -0.02969   0.00228  18.13813   0.05245  81.33009        1506.00        3767.46     1.30800     1.47207   174.34032     0.10978     0.00000  1012.99652  1012.99652
    23      364.74661      259.69107    -5     7    -7  -0.04611  -0.08148   0.00337  18.42437   0.04893  86.88822        8374.00       22223.46     1.26816     1.90055   179.34818     0.18430     0.00000   145.90199   145.90199
    30      784.08881       52.58984   -10     6    -8  -0.00436  -0.10664   0.00326  21.07656   0.03835 100.14965        6372.00       11119.46     1.12591     1.35001   177.12532     0.16315     0.00000   262.02020   262.02020
    34      300.67935       92.99068    -6     8   -10  -0.07239   0.01867   0.00297  21.53372   0.03834  97.34171         522.00        2764.24     1.23885     2.33164     5.66252     0.52932     0.00000   615.84363   615.84363
    25      919.89380      273.36115    -9     5    -5   0.12295  -0.10860   0.00592  19.04946   0.04744  86.62933        1088.00        4293.46     1.46887     1.81765   168.17610     0.14960     0.00000   784.08984   784.08984
    26       27.56148      162.41501    -3     7    -9   0.32453   0.03608   0.01095  18.66364   0.04597  92.52967         950.00        2813.46     1.13195     1.79064   177.21332     0.10765     0.00000   301.01117   301.01117
    24      822.84790       31.44749    -9     5    -7   0.19417  -0.17404   0.00872  18.39886   0.04356 101.32805       11811.00       19226.46     1.20366     1.28765     2.82986     0.18503     0.00000   365.09976   365.09976
    27      261.68173       78.66192    -5     7    -9  -0.07902  -0.05150   0.00340  18.84945   0.04354  98.10705        4692.00       13482.46     1.60273     1.77937    15.03989     0.19957     0.00000   920.14215   920.14215
    36      698.72589      226.34477    -9     7    -7   0.05586  -0.07386   0.00345  21.75004   0.04058  89.24843           0.00           0.00     0.00000     0.00000     0.00000     0.00000     0.00000     0.00000     0.00000
    28      454.66724       47.77034    -7     7    -9  -0.00229   0.02618   0.00083  19.88976   0.04053 100.53967        4642.00       11851.46     1.41504     1.75842   168.42319     0.18479     0.00000    27.90257    27.90257
    33      971.54169       85.60712   -11     5    -7  -0.35162  -0.30148   0.01536  21.19168   0.03885  97.70564         749.00        2861.46     1.41777     1.65653     9.47788     0.12221     0.00000   971.98395   971.98395
latticeparameters=   0.54325   0.54483   0.54093  89.94879  90.19303  90.25700
dpsx, dpsy: 179.00000 168.38699
dd, xcent, ycent:      150.57201      540.60303      212.87601
pitch,yaw,roll:  -0.22645   0.61642   0.00000
dev1, dev2, pixdev:   0.01228   0.01202   0.25397
deviatoric strain in crystal reference u1 u2 u3 (*10^3)
   0.46072  -2.25030  -1.67808
  -2.25030   3.36791   0.43767
  -1.67808   0.43767  -3.81557
deviatoric strain in sample reference X Y Z (*10^3)
  -0.25631  -0.86839   0.49577
  -0.86839   4.61215   0.17212
   0.49577   0.17212  -4.34278
deviatoric principal strains (*10^3):   4.76321  -0.33960  -4.41055
deviatoric strain principal axes in sample reference:
  -0.16956   0.98547   0.00940
   0.97758   0.16698   0.12825
  -0.12482  -0.03093   0.99170
deviatoric stress in crystal reference u1 u2 u3 (MPa)
       47.69067     -357.84344     -266.84808
     -357.84344      343.35144       69.59888
     -266.84808       69.59888     -387.20795
deviatoric stress in sample reference X Y Z (MPa)
      -37.56453     -199.55080      -26.92993
     -199.55080      565.69543       21.22902
      -26.92993       21.22902     -524.29675
deviatoric principal stresses (MPa):      626.41577      -96.69623     -525.88538
deviatoric stress principal axes in sample reference:
       -0.28864        0.95713        0.02441
       -0.95608       -0.28950        0.04584
        0.05094       -0.01011        0.99865
total strain in sample reference X Y Z (*10^3)
   1.52993  -0.86839   0.49577
  -0.86839   6.39839   0.17212
   0.49577   0.17212  -2.55654
total principal strains (*10^3):   6.54945   1.44664  -2.62431
total strain principal axes in sample reference:
  -0.16956   0.98547   0.00940
   0.97758   0.16698   0.12825
  -0.12482  -0.03093   0.99170
total stress in crystal reference u1 u2 u3 (MPa)
      571.98743     -357.84344     -266.84808
     -357.84344      867.64819       69.59888
     -266.84808       69.59888      137.08881
total stress in sample reference X Y Z (MPa)
      486.73224     -199.55080      -26.92993
     -199.55080     1089.99219       21.22902
      -26.92993       21.22902        0.00000
total principal stresses (MPa):     1150.71240      427.60052       -1.58862
total stress principal axes in sample reference:
       -0.28864        0.95713        0.02441
       -0.95608       -0.28950        0.04584
        0.05094       -0.01011        0.99865
dilatational strain (*10^-3):        1.78624
hydrostatic stress (MPa):      525.57483
Von Mises stress (MPa):     1008.68536
equivalent strain (*10^-3):        5.30762
equivalent stress (MPa):     1008.68536
maximum resolved shear stress:       16.75039
coordinates of a, b, c in X, Y, Z
   0.44443  -0.20245   0.23852
   0.19254   0.50579   0.06497
  -0.24573   0.03227   0.48110
coordinates of a*, b*, c* in X, Y, Z
   1.50608  -0.67797   0.81471
   0.65610   1.70077   0.22105
  -0.83528   0.10645   1.64673
