\\vmware-host\Shared Folders\Desktop\SiHyperlaueFinal_shielded_results\results_00042.STR
Number of grains:       1
Grain no:       1   Grainlist file index:       1    Number of peaks:      33
no   x(exp)  y(exp)  h  k  l xdev  ydev  angdev  energy  dspace  twotheta  intens   integr  xwidth   ywidth  tilt  rfactor   pearson  xcentroid  ycentroid
     2      392.62329      871.98956    -2     4    -2  -0.32886  -0.11864   0.01910  12.44757   0.11105  53.29189       59770.00      204968.61     1.79617     2.06128   178.06332     0.21470     0.00000   746.61682   746.61682
     5      746.30249      951.29993    -3     3    -1  -0.33034   0.52011   0.02131  11.59354   0.12490  50.69606       49149.00      127730.61     1.66593     1.87505   100.16801     0.19663     0.00000  1026.74377  1026.74377
    13      991.66864      299.62149    -4     2    -2   0.10984  -0.03815   0.00434   8.25873   0.11084  85.25718       49103.00       85074.61     1.23183     1.56352   179.07957     0.22804     0.00000   282.87057   282.87057
     3      546.02954      225.15089    -3     3    -3   0.12012   0.19294   0.00845   8.45280   0.10446  89.18963       38330.00       57637.61     1.23074     1.23363   141.42624     0.18193     0.00000   992.00769   992.00769
     6     1026.42468      909.53229    -5     3    -1  -0.27525   0.26747   0.01387  14.49342   0.09197  55.43237       46422.00      123638.61     1.59550     1.96074   118.69515     0.24110     0.00000   925.33643   925.33643
     7      924.97919      683.05066    -6     4    -2   0.09670   0.02318   0.00449  16.08289   0.07268  64.06063        1013.00        2101.61     1.14666     1.44315     0.65694     0.06902     0.00000    62.01581    62.01581
    36       61.80830      407.68365    -1     3    -3   0.23798   0.29457   0.01280   7.85974   0.12446  78.64967           0.00           0.00     0.00000     0.00000     0.00000     0.00000     0.00000     0.00000     0.00000
     4      426.61533      666.12408    -3     5    -3   0.45662  -0.13187   0.02520  14.35953   0.08292  62.75113       79778.00      262902.59     1.79147     1.87400     1.85135     0.23104     0.00000   546.37341   546.37341
    14      648.66748      500.24258    -6     6    -4   0.15619   0.01471   0.00814  18.19128   0.05795  72.04365       14633.00       25756.61     1.22286     1.45104     5.18826     0.19055     0.00000   258.91278   258.91278
     8      668.66693      570.51471    -5     5    -3   0.09887  -0.03430   0.00534  15.64168   0.07079  68.09119       48393.00      221084.61     1.89853     2.75030   175.21085     0.30650     0.00000   426.82169   426.82169
     9      868.07574      257.33344    -5     3    -3   0.09677   0.19050   0.00706  10.82872   0.08280  87.48538       25169.00       51186.61     1.09044     1.85797   179.97810     0.19324     0.00000   649.00043   649.00043
    11      331.58612      270.36053    -4     6    -6  -0.49806  -0.03522   0.02253  15.68237   0.05785  86.21133       32471.00       87389.61     1.64743     1.94303   131.25034     0.22199     0.00000   868.38367   868.38367
    10      282.60880      288.46664    -3     5    -5  -0.42580  -0.03302   0.01892  12.97650   0.07065  85.10131       63250.00       92961.61     1.08411     1.50744   179.98323     0.19302     0.00000   669.00446   669.00446
    19      258.61298      619.59460    -3     7    -5  -0.06163  -0.39197   0.01093  19.09071   0.05964  65.98109       23986.00       47116.61     1.24172     1.69103     7.01365     0.23809     0.00000   129.70171   129.70171
    17      858.86255      567.53503    -7     5    -3   0.16917  -0.27492   0.01123  18.24931   0.05968  69.39068        8892.00       21892.61     1.08663     1.94260   179.96249     0.30246     0.00000   464.01395   464.01395
    31      474.97906      454.83615    -6     8    -6   0.05348   0.06157   0.00337  21.96831   0.04659  74.55588         552.00        2220.61     1.27523     1.91596     7.50369     0.10265     0.00000   699.02014   699.02014
    20      463.66864      498.15656    -5     7    -5   0.34874  -0.11978   0.01856  19.31489   0.05462  71.98182       15362.00       30562.61     1.17004     1.72106   177.72241     0.21825     0.00000   439.08075   439.08075
    22      721.83258      228.64235    -8     6    -6   0.06961   0.03748   0.00334  18.98037   0.04655  89.11397       26004.00       38828.61     1.17589     1.28347   176.73083     0.20312     0.00000   753.86169   753.86169
    15      129.37988       39.61916    -3     5    -7  -0.21307   0.22671   0.01009  13.62017   0.05948  99.85715       16037.00       34307.61     1.44965     1.59306    70.88835     0.22507     0.00000   859.19812   859.19812
    18      438.69965       20.96281    -6     6    -8   0.42804   0.31887   0.01980  17.13966   0.04649 102.15985       10361.00       20268.61     1.22305     1.48553   179.09013     0.21929     0.00000   722.15424   722.15424
    30     1012.69385      601.57611    -9     5    -3   0.01484  -0.14111   0.00364  21.60218   0.05069  68.95845        5742.00        9969.61     1.11835     1.34404   176.75793     0.15742     0.00000   262.03885   262.03885
    16      753.58905      232.69873    -7     5    -5  -0.32733   0.21089   0.01586  16.22810   0.05456  88.87371        1000.00        3139.61     1.50244     1.74405   173.45856     0.10564     0.00000   475.07730   475.07730
    21      145.61017      355.19427    -3     7    -7  -0.05619  -0.03782   0.00262  18.13762   0.05245  81.33006        1373.00        3581.61     1.31569     1.51337   169.87965     0.11176     0.00000  1013.00348  1013.00348
    23      364.75211      259.68594    -5     7    -7  -0.04667  -0.08319   0.00343  18.42387   0.04893  86.88866        7952.00       20826.61     1.25213     1.89523   179.00403     0.18336     0.00000   145.92177   145.92177
    29      784.12177       52.58109   -10     6    -8  -0.03587  -0.10829   0.00364  21.07638   0.03835 100.15029        4500.00       12403.61     1.43061     1.67977    29.58610     0.24611     0.00000   823.13092   823.13092
    33      300.67429       92.99981    -6     8   -10  -0.06432   0.00965   0.00260  21.53341   0.03834  97.34171         712.00        2631.61     1.42046     1.58416    10.38399     0.11447     0.00000   971.96875   971.96875
    25      919.93524      273.31995    -9     5    -5   0.09127  -0.08721   0.00451  19.04909   0.04744  86.63053         971.00        4300.61     1.52222     1.81810   163.24007     0.15882     0.00000   784.08795   784.08795
    26       27.57297      162.43613    -3     7    -9   0.31633   0.02355   0.01065  18.66339   0.04597  92.52919         891.00        2624.61     1.13252     1.78553   176.88576     0.10496     0.00000   301.01434   301.01434
    24      822.81573       31.44181    -9     5    -7   0.22626  -0.17863   0.00979  18.39875   0.04356 101.32867       10837.00       17951.61     1.20262     1.29891     1.81247     0.18583     0.00000   365.09668   365.09668
    27      261.68033       78.66025    -5     7    -9  -0.07471  -0.04783   0.00321  18.84920   0.04354  98.10694        4000.00       12269.61     1.64047     1.83869    65.21283     0.19217     0.00000   920.14612   920.14612
    35      698.73578      226.38210    -9     7    -7   0.05421  -0.12566   0.00470  21.74955   0.04058  89.24936           0.00           0.00     0.00000     0.00000     0.00000     0.00000     0.00000     0.00000     0.00000
    28      454.66574       47.76538    -7     7    -9   0.00189   0.02835   0.00089  19.88953   0.04053 100.53985        4276.00       10588.61     1.39829     1.71827   169.16074     0.17415     0.00000    27.91915    27.91915
    32      971.53424       85.60365   -11     5    -7  -0.34456  -0.31349   0.01537  21.19154   0.03885  97.70654        2910.00        6260.61     1.07848     1.49576   179.38905     0.16248     0.00000   454.99805   454.99805
latticeparameters=   0.54324   0.54487   0.54091  89.94824  90.19503  90.25843
dpsx, dpsy: 179.00000 168.38699
dd, xcent, ycent:      150.57201      540.60303      212.87601
pitch,yaw,roll:  -0.22645   0.61642   0.00000
dev1, dev2, pixdev:   0.01233   0.01211   0.25657
deviatoric strain in crystal reference u1 u2 u3 (*10^3)
   0.43549  -2.26294  -1.69545
  -2.26294   3.42529   0.44232
  -1.69545   0.44232  -3.84741
deviatoric strain in sample reference X Y Z (*10^3)
  -0.26841  -0.85445   0.49079
  -0.85445   4.66770   0.18620
   0.49079   0.18620  -4.38592
deviatoric principal strains (*10^3):   4.81256  -0.34654  -4.45266
deviatoric strain principal axes in sample reference:
  -0.16478   0.98627   0.01117
   0.97865   0.16208   0.12638
  -0.12283  -0.03176   0.99192
deviatoric stress in crystal reference u1 u2 u3 (MPa)
       45.14384     -359.85266     -269.61038
     -359.85266      349.20691       70.33783
     -269.61038       70.33783     -390.42694
deviatoric stress in sample reference X Y Z (MPa)
      -38.54524     -198.90216      -28.08511
     -198.90216      571.93298       22.93465
      -28.08511       22.93465     -529.46393
deviatoric principal stresses (MPa):      631.79376      -96.67348     -531.19647
deviatoric stress principal axes in sample reference:
       -0.28536        0.95807        0.02582
       -0.95699       -0.28630        0.04693
        0.05236       -0.01132        0.99856
total strain in sample reference X Y Z (*10^3)
   1.53543  -0.85445   0.49079
  -0.85445   6.47154   0.18620
   0.49079   0.18620  -2.58208
total principal strains (*10^3):   6.61641   1.45731  -2.64882
total strain principal axes in sample reference:
  -0.16478   0.98627   0.01117
   0.97865   0.16208   0.12638
  -0.12283  -0.03176   0.99192
total stress in crystal reference u1 u2 u3 (MPa)
      574.60779     -359.85266     -269.61038
     -359.85266      878.67084       70.33783
     -269.61038       70.33783      139.03699
total stress in sample reference X Y Z (MPa)
      490.91870     -198.90216      -28.08511
     -198.90216     1101.39685       22.93465
      -28.08511       22.93465        0.00000
total principal stresses (MPa):     1161.25757      432.79050       -1.73253
total stress principal axes in sample reference:
       -0.28536        0.95807        0.02582
       -0.95699       -0.28630        0.04693
        0.05236       -0.01132        0.99856
dilatational strain (*10^-3):        1.80384
hydrostatic stress (MPa):      530.77185
Von Mises stress (MPa):     1017.84601
equivalent strain (*10^-3):        5.36078
equivalent stress (MPa):     1017.84601
maximum resolved shear stress:       14.76163
coordinates of a, b, c in X, Y, Z
   0.44441  -0.20245   0.23850
   0.19253   0.50581   0.06500
  -0.24573   0.03225   0.48106
coordinates of a*, b*, c* in X, Y, Z
   1.50606  -0.67796   0.81476
   0.65604   1.70062   0.22112
  -0.83530   0.10634   1.64674
