\\vmware-host\Shared Folders\Desktop\SiHyperlaueFinal_shielded_results\results_00055.STR
Number of grains:       1
Grain no:       1   Grainlist file index:       1    Number of peaks:      33
no   x(exp)  y(exp)  h  k  l xdev  ydev  angdev  energy  dspace  twotheta  intens   integr  xwidth   ywidth  tilt  rfactor   pearson  xcentroid  ycentroid
     2      392.62604      871.98193    -2     4    -2  -0.32861  -0.11170   0.01906  12.44769   0.11105  53.29191       59286.00      206335.86     1.78955     2.07303   178.35809     0.21159     0.00000   746.62488   746.62488
     5      746.30957      951.27509    -3     3    -1  -0.33639   0.53157   0.02172  11.59353   0.12490  50.69658       49412.00      128070.85     1.61079     1.93220   118.93583     0.18732     0.00000  1026.75305  1026.75305
    13      991.66925      299.61768    -4     2    -2   0.12206  -0.04884   0.00487   8.25862   0.11084  85.25806       49058.00       84942.85     1.22681     1.57007   179.13850     0.22752     0.00000   282.87885   282.87885
     3      546.03717      225.14738    -3     3    -3   0.11607   0.18760   0.00820   8.45271   0.10446  89.19021       38271.00       58558.85     1.23921     1.24084   125.38008     0.18736     0.00000   992.00879   992.00879
     6     1026.43115      909.51697    -5     3    -1  -0.27766   0.26418   0.01394  14.49329   0.09197  55.43315       46076.00      123286.85     1.60959     1.95548   146.48203     0.24557     0.00000   925.34283   925.34283
     7      924.98950      683.04333    -6     4    -2   0.09110   0.01770   0.00423  16.08277   0.07268  64.06130        1114.00        2247.85     1.13434     1.42908   179.30914     0.07296     0.00000    62.02728    62.02728
    36       61.80228      407.68918    -1     3    -3   0.24461   0.29092   0.01293   7.85971   0.12446  78.64956           0.00           0.00     0.00000     0.00000     0.00000     0.00000     0.00000     0.00000     0.00000
     4      426.62082      666.12628    -3     5    -3   0.45371  -0.13525   0.02505  14.35959   0.08292  62.75119       79337.00      263674.84     1.79960     1.87425     7.52728     0.23079     0.00000   546.37555   546.37555
    14      648.66730      500.24234    -6     6    -4   0.15952   0.00831   0.00831  18.19121   0.05795  72.04405       14510.00       25611.85     1.21945     1.46222     4.82895     0.18999     0.00000   258.91177   258.91177
     8      668.66681      570.50494    -5     5    -3   0.10184  -0.03138   0.00548  15.64164   0.07079  68.09159       48154.00      222466.86     1.90311     2.77933   175.15459     0.30601     0.00000   426.82874   426.82874
     9      868.08966      257.30850    -5     3    -3   0.09248   0.20202   0.00725  10.82858   0.08280  87.48622       24975.00       51087.85     1.09032     1.85764   179.95639     0.19662     0.00000   649.00256   649.00256
    11      331.58942      270.35809    -4     6    -6  -0.50001  -0.03736   0.02262  15.68224   0.05785  86.21162       31983.00       87964.85     1.71426     1.91395   119.75610     0.22133     0.00000   868.38898   868.38898
    10      282.61060      288.46298    -3     5    -5  -0.42655  -0.03285   0.01895  12.97641   0.07065  85.10152       62717.00       93083.85     1.08453     1.52589     0.03151     0.19399     0.00000   669.00049   669.00049
    19      258.61502      619.59045    -3     7    -5  -0.06060  -0.38591   0.01075  19.09079   0.05964  65.98097       23875.00       46810.85     1.24143     1.68491     7.48379     0.24300     0.00000   129.70264   129.70264
    17      858.87079      567.52393    -7     5    -3   0.16586  -0.27462   0.01111  18.24918   0.05968  69.39130        8857.00       22091.85     1.08659     1.94756   179.94206     0.30337     0.00000   464.01642   464.01642
    31      474.99179      454.83508    -6     8    -6   0.04328   0.05907   0.00290  21.96825   0.04659  74.55609         509.00        2252.85     1.24790     1.96654     1.83315     0.10158     0.00000   699.00562   699.00562
    20      463.66901      498.16229    -5     7    -5   0.35086  -0.12843   0.01871  19.31487   0.05462  71.98199       15297.00       31045.85     1.17684     1.73684   177.57079     0.22060     0.00000   439.08160   439.08160
    22      721.84875      228.64104    -8     6    -6   0.05992   0.02715   0.00282  18.98014   0.04655  89.11472       26181.00       38797.85     1.17231     1.28210   177.26088     0.19835     0.00000   753.86908   753.86908
    15      129.38274       39.61853    -3     5    -7  -0.22027   0.21754   0.01010  13.61996   0.05948  99.85769       15886.00       34807.85     1.46416     1.61602    66.24621     0.22802     0.00000   859.21295   859.21295
    18      438.70212       20.97411    -6     6    -8   0.42764   0.29346   0.01942  17.13937   0.04649 102.16073       10181.00       20134.85     1.23203     1.52221   177.94304     0.21584     0.00000   722.16510   722.16510
    30     1012.69336      601.58984    -9     5    -3   0.02314  -0.16822   0.00441  21.60198   0.05069  68.95920        5772.00        9850.85     1.11426     1.35759   177.60423     0.15000     0.00000   262.01376   262.01376
    16      753.58929      232.69542    -7     5    -5  -0.32047   0.20213   0.01547  16.22790   0.05456  88.87448        1026.00        3461.85     1.52708     1.77582     9.85747     0.11555     0.00000   475.07001   475.07001
    21      145.60788      355.20282    -3     7    -7  -0.05331  -0.04661   0.00264  18.13753   0.05245  81.33007        1386.00        3675.85     1.35307     1.51947   169.46350     0.11061     0.00000  1013.00067  1013.00067
    23      364.75006      259.68533    -5     7    -7  -0.04301  -0.08788   0.00345  18.42370   0.04893  86.88900        7994.00       20687.85     1.25347     1.89376   179.23999     0.18145     0.00000   145.91235   145.91235
    29      784.13934       52.56922   -10     6    -8  -0.04276  -0.11440   0.00393  21.07602   0.03835 100.15136        4382.00       12345.85     1.48067     1.82386    74.19101     0.21218     0.00000   823.15070   823.15070
    32      300.67517       92.97301    -6     8   -10  -0.06544   0.02690   0.00277  21.53309   0.03834  97.34230        2927.00        6204.85     1.08170     1.50721   178.60428     0.15682     0.00000   454.99747   454.99747
    24      919.91516      273.31287    -9     5    -5   0.12227  -0.09406   0.00566  19.04883   0.04744  86.63138       10931.00       18122.85     1.21179     1.29607     2.48469     0.18335     0.00000   365.10828   365.10828
    26       27.56964      162.42546    -3     7    -9   0.31549   0.03012   0.01063  18.66317   0.04597  92.52941         947.00        2894.85     1.13159     1.78412   176.13589     0.11359     0.00000   301.00220   301.00220
    25      822.86029       31.39507    -9     5    -7   0.19412  -0.15135   0.00837  18.39842   0.04356 101.32979         933.00        3898.85     1.52962     1.83103   165.93925     0.13929     0.00000   784.08435   784.08435
    27      261.67789       78.65847    -5     7    -9  -0.07334  -0.05569   0.00327  18.84892   0.04354  98.10752        4079.00       12544.85     1.63452     1.82611    16.55228     0.19554     0.00000   920.16565   920.16565
    35      698.72693      226.28638    -9     7    -7   0.06910  -0.04126   0.00337  21.74928   0.04058  89.25010           0.00           0.00     0.00000     0.00000     0.00000     0.00000     0.00000     0.00000     0.00000
    28      454.66339       47.75557    -7     7    -9   0.00665   0.02494   0.00083  19.88920   0.04053 100.54068        4406.00       10924.85     1.39941     1.72550   168.94637     0.17816     0.00000    27.91181    27.91181
    33      971.55542       85.59354   -11     5    -7  -0.34857  -0.32312   0.01566  21.19118   0.03885  97.70763         689.00        2591.85     1.37426     1.68133    19.54551     0.11561     0.00000   971.97552   971.97552
latticeparameters=   0.54324   0.54485   0.54093  89.94940  90.19425  90.25835
dpsx, dpsy: 179.00000 168.38699
dd, xcent, ycent:      150.57201      540.60303      212.87601
pitch,yaw,roll:  -0.22645   0.61642   0.00000
dev1, dev2, pixdev:   0.01231   0.01209   0.25543
deviatoric strain in crystal reference u1 u2 u3 (*10^3)
   0.44063  -2.26223  -1.68867
  -2.26223   3.39920   0.43224
  -1.68867   0.43224  -3.82663
deviatoric strain in sample reference X Y Z (*10^3)
  -0.26540  -0.85926   0.48432
  -0.85926   4.64426   0.17294
   0.48432   0.17294  -4.36566
deviatoric principal strains (*10^3):   4.79117  -0.34763  -4.43034
deviatoric strain principal axes in sample reference:
  -0.16661   0.98597   0.00981
   0.97849   0.16410   0.12501
  -0.12164  -0.03043   0.99211
deviatoric stress in crystal reference u1 u2 u3 (MPa)
       45.65597     -359.73959     -268.53284
     -359.73959      346.54318       68.73463
     -268.53284       68.73463     -388.32422
deviatoric stress in sample reference X Y Z (MPa)
      -38.32575     -199.05453      -28.67365
     -199.05453      569.43213       20.99397
      -28.67365       20.99397     -527.23145
deviatoric principal stresses (MPa):      629.51678      -96.64860     -528.99323
deviatoric stress principal axes in sample reference:
       -0.28652        0.95776        0.02448
       -0.95652       -0.28742        0.04968
        0.05462       -0.00918        0.99846
total strain in sample reference X Y Z (*10^3)
   1.53084  -0.85926   0.48432
  -0.85926   6.44049   0.17294
   0.48432   0.17294  -2.56942
total principal strains (*10^3):   6.58741   1.44861  -2.63411
total strain principal axes in sample reference:
  -0.16661   0.98597   0.00981
   0.97849   0.16410   0.12501
  -0.12164  -0.03043   0.99211
total stress in crystal reference u1 u2 u3 (MPa)
      572.88745     -359.73959     -268.53284
     -359.73959      873.77466       68.73463
     -268.53284       68.73463      138.90726
total stress in sample reference X Y Z (MPa)
      488.90573     -199.05453      -28.67365
     -199.05453     1096.66357       20.99397
      -28.67365       20.99397        0.00000
total principal stresses (MPa):     1156.74829      430.58286       -1.76175
total stress principal axes in sample reference:
       -0.28652        0.95776        0.02448
       -0.95652       -0.28742        0.04968
        0.05462       -0.00918        0.99846
dilatational strain (*10^-3):        1.79624
hydrostatic stress (MPa):      528.52313
Von Mises stress (MPa):     1013.99786
equivalent strain (*10^-3):        5.33567
equivalent stress (MPa):     1013.99786
maximum resolved shear stress:       14.95564
coordinates of a, b, c in X, Y, Z
   0.44441  -0.20244   0.23851
   0.19253   0.50580   0.06498
  -0.24574   0.03225   0.48107
coordinates of a*, b*, c* in X, Y, Z
   1.50606  -0.67794   0.81477
   0.65604   1.70068   0.22110
  -0.83530   0.10640   1.64671
