\\vmware-host\Shared Folders\Desktop\SiHyperlaueFinal_shielded_results\results_00027.STR
Number of grains:       1
Grain no:       1   Grainlist file index:       1    Number of peaks:      33
no   x(exp)  y(exp)  h  k  l xdev  ydev  angdev  energy  dspace  twotheta  intens   integr  xwidth   ywidth  tilt  rfactor   pearson  xcentroid  ycentroid
     2      392.62128      871.98602    -2     4    -2  -0.33134  -0.10540   0.01919  12.44787   0.11105  53.29151       57901.00      201861.08     1.81055     2.06454   178.00127     0.21434     0.00000   746.61035   746.61035
     5      746.28809      951.29926    -3     3    -1  -0.32720   0.52481   0.02120  11.59377   0.12490  50.69582       48682.00      127144.07     1.67374     1.85721   105.69075     0.19748     0.00000  1026.73499  1026.73499
    13      991.66791      299.62598    -4     2    -2   0.10983  -0.03881   0.00434   8.25874   0.11084  85.25696       49131.00       84990.07     1.23546     1.55697   179.07146     0.22787     0.00000   282.87155   282.87155
     3      546.02319      225.15427    -3     3    -3   0.12549   0.19309   0.00862   8.45282   0.10446  89.18940       39121.00       58554.07     1.21792     1.23733   174.49304     0.18129     0.00000   992.00140   992.00140
     6     1026.41760      909.54303    -5     3    -1  -0.28166   0.25664   0.01404  14.49359   0.09197  55.43220       45667.00      122130.07     1.60569     1.94812   105.38870     0.24998     0.00000   925.33215   925.33215
     7      924.97064      683.06439    -6     4    -2   0.09554   0.01348   0.00444  16.08308   0.07268  64.06034        1027.00        2182.07     1.15498     1.40788     0.33685     0.07539     0.00000    62.01782    62.01782
    36       61.79169      407.68478    -1     3    -3   0.25402   0.29755   0.01335   7.85977   0.12446  78.64944           0.00           0.00     0.00000     0.00000     0.00000     0.00000     0.00000     0.00000     0.00000
     4      426.60849      666.13379    -3     5    -3   0.45932  -0.13241   0.02535  14.35981   0.08292  62.75067       80328.00      263952.06     1.78567     1.87430     2.27603     0.23126     0.00000   546.36823   546.36823
    14      648.66705      500.26013    -6     6    -4   0.15130   0.00408   0.00788  18.19151   0.05795  72.04323       14703.00       26186.07     1.22654     1.46111     5.08631     0.19386     0.00000   258.91141   258.91141
     8      668.66687      570.52100    -5     5    -3   0.09254  -0.03347   0.00501  15.64191   0.07079  68.09077       49285.00      220623.08     1.89871     2.71365   175.23582     0.30555     0.00000   426.81781   426.81781
     9      868.06445      257.33853    -5     3    -3   0.10719   0.18903   0.00727  10.82874   0.08280  87.48516       25559.00       50972.07     1.08915     1.84567   179.93716     0.19584     0.00000   649.00092   649.00092
    11      331.58517      270.36649    -4     6    -6  -0.49799  -0.03745   0.02253  15.68242   0.05785  86.21109       33074.00       88074.07     1.64637     1.93041   132.94078     0.22263     0.00000   868.37567   868.37567
    10      282.60742      288.47061    -3     5    -5  -0.42526  -0.03319   0.01890  12.97654   0.07065  85.10107       63937.00       93587.07     1.08390     1.49757   179.92586     0.19289     0.00000   669.00372   669.00372
    19      258.61115      619.59406    -3     7    -5  -0.06147  -0.38293   0.01070  19.09101   0.05964  65.98066       23811.00       46823.07     1.24360     1.68859     7.39827     0.24116     0.00000   129.70152   129.70152
    17      858.84735      567.53918    -7     5    -3   0.17681  -0.27383   0.01149  18.24951   0.05968  69.39034        8764.00       22076.07     1.08693     1.94654   179.99751     0.30107     0.00000   464.00552   464.00552
    31      474.98651      454.84799    -6     8    -6   0.04281   0.05696   0.00284  21.96857   0.04659  74.55544         542.00        2187.07     1.26965     1.92261     5.70374     0.09712     0.00000   699.03259   699.03259
    20      463.66876      498.18073    -5     7    -5   0.34515  -0.13622   0.01846  19.31515   0.05462  71.98137       15327.00       31118.07     1.16662     1.74551   177.85931     0.21958     0.00000   439.08023   439.08023
    22      721.84216      228.64687    -8     6    -6   0.05907   0.03646   0.00289  18.98041   0.04655  89.11374       26116.00       39441.07     1.17649     1.30322   178.98181     0.20412     0.00000   753.86566   753.86566
    15      129.38087       39.61873    -3     5    -7  -0.21528   0.22257   0.01007  13.62005   0.05948  99.85740       16492.00       34710.07     1.43891     1.56830    42.71447     0.22785     0.00000   859.19336   859.19336
    18      438.69888       20.98229    -6     6    -8   0.43037   0.29702   0.01956  17.13955   0.04649 102.16000       10545.00       20456.07     1.22023     1.50647   178.10844     0.21502     0.00000   722.15509   722.15509
    30     1012.68774      601.58838    -9     5    -3   0.01284  -0.14945   0.00383  21.60236   0.05069  68.95818        5736.00       10075.07     1.11450     1.37032   176.82123     0.15731     0.00000   262.02243   262.02243
    16      753.58063      232.69923    -7     5    -5  -0.31985   0.21390   0.01560  16.22813   0.05456  88.87349        1014.00        3272.07     1.54339     1.74386   172.85480     0.10560     0.00000   475.04721   475.04721
    21      145.60536      355.19455    -3     7    -7  -0.05207  -0.03411   0.00241  18.13769   0.05245  81.32983        1368.00        3550.07     1.29438     1.54320   172.99892     0.10839     0.00000  1012.99725  1012.99725
    23      364.74805      259.68573    -5     7    -7  -0.04351  -0.07928   0.00324  18.42392   0.04893  86.88843        7791.00       20610.07     1.26118     1.90232   179.53119     0.18141     0.00000   145.90642   145.90642
    29      784.14014       52.57118   -10     6    -8  -0.05038  -0.09871   0.00366  21.07628   0.03835 100.15030        4568.00       12616.07     1.44983     1.79084    78.57788     0.21640     0.00000   823.13831   823.13831
    33      300.68521       93.01203    -6     8   -10  -0.07512  -0.00363   0.00301  21.53330   0.03834  97.34178         707.00        2695.07     1.45558     1.54692    21.78677     0.11773     0.00000   971.95465   971.95465
    25      919.90204      273.32657    -9     5    -5   0.12365  -0.09014   0.00566  19.04911   0.04744  86.63031         950.00        4126.07     1.54475     1.83553   162.89485     0.14700     0.00000   784.07312   784.07312
    26       27.57639      162.43077    -3     7    -9   0.31099   0.02711   0.01048  18.66328   0.04597  92.52929         874.00        2651.07     1.14037     1.83954   176.18117     0.10265     0.00000   301.01416   301.01416
    24      822.85498       31.42492    -9     5    -7   0.19203  -0.16262   0.00847  18.39865   0.04356 101.32870       11086.00       17907.07     1.20057     1.29035     1.20304     0.17795     0.00000   365.09488   365.09488
    27      261.67847       78.66620    -5     7    -9  -0.07288  -0.05564   0.00325  18.84909   0.04354  98.10705        4214.00       12590.07     1.61117     1.80553    13.49010     0.19975     0.00000   920.14093   920.14093
    35      698.72479      226.34802    -9     7    -7   0.06424  -0.08809   0.00403  21.74959   0.04058  89.24914           0.00           0.00     0.00000     0.00000     0.00000     0.00000     0.00000     0.00000     0.00000
    28      454.66663       47.76346    -7     7    -9   0.00232   0.02886   0.00091  19.88942   0.04053 100.53994        4417.00       10945.07     1.38577     1.72897   169.17035     0.17641     0.00000    27.90392    27.90392
    32      971.53540       85.59869   -11     5    -7  -0.33988  -0.30792   0.01514  21.19145   0.03885  97.70649        2961.00        6326.07     1.07796     1.50808     1.48186     0.16158     0.00000   454.95996   454.95996
latticeparameters=   0.54324   0.54485   0.54093  89.94920  90.19444  90.25805
dpsx, dpsy: 179.00000 168.38699
dd, xcent, ycent:      150.57201      540.60303      212.87601
pitch,yaw,roll:  -0.22645   0.61642   0.00000
dev1, dev2, pixdev:   0.01229   0.01207   0.25422
deviatoric strain in crystal reference u1 u2 u3 (*10^3)
   0.44268  -2.25960  -1.69037
  -2.25960   3.39431   0.43404
  -1.69037   0.43404  -3.82381
deviatoric strain in sample reference X Y Z (*10^3)
  -0.26188  -0.86096   0.48391
  -0.86096   4.63882   0.17521
   0.48391   0.17521  -4.36376
deviatoric principal strains (*10^3):   4.78659  -0.34493  -4.42849
deviatoric strain principal axes in sample reference:
  -0.16717   0.98588   0.01004
   0.97840   0.16463   0.12499
  -0.12157  -0.03071   0.99211
deviatoric stress in crystal reference u1 u2 u3 (MPa)
       45.86280     -359.32202     -268.80252
     -359.32202      346.04355       69.02136
     -268.80252       69.02136     -388.03922
deviatoric stress in sample reference X Y Z (MPa)
      -37.84727     -199.19482      -28.70253
     -199.19482      568.79108       21.39792
      -28.70253       21.39792     -527.07666
deviatoric principal stresses (MPa):      629.06482      -96.34956     -528.84808
deviatoric stress principal axes in sample reference:
       -0.28708        0.95758        0.02485
       -0.95636       -0.28800        0.04942
        0.05448       -0.00958        0.99847
total strain in sample reference X Y Z (*10^3)
   1.53383  -0.86096   0.48391
  -0.86096   6.43453   0.17521
   0.48391   0.17521  -2.56805
total principal strains (*10^3):   6.58230   1.45078  -2.63278
total strain principal axes in sample reference:
  -0.16717   0.98588   0.01004
   0.97840   0.16463   0.12499
  -0.12157  -0.03071   0.99211
total stress in crystal reference u1 u2 u3 (MPa)
      572.93945     -359.32202     -268.80252
     -359.32202      873.12024       69.02136
     -268.80252       69.02136      139.03746
total stress in sample reference X Y Z (MPa)
      489.22940     -199.19482      -28.70253
     -199.19482     1095.86780       21.39792
      -28.70253       21.39792        0.00000
total principal stresses (MPa):     1156.14148      430.72708       -1.77142
total stress principal axes in sample reference:
       -0.28708        0.95758        0.02485
       -0.95636       -0.28800        0.04942
        0.05448       -0.00958        0.99847
dilatational strain (*10^-3):        1.79571
hydrostatic stress (MPa):      528.36572
Von Mises stress (MPa):     1013.42078
equivalent strain (*10^-3):        5.33178
equivalent stress (MPa):     1013.42078
maximum resolved shear stress:       15.46987
coordinates of a, b, c in X, Y, Z
   0.44441  -0.20245   0.23850
   0.19254   0.50580   0.06498
  -0.24573   0.03225   0.48108
coordinates of a*, b*, c* in X, Y, Z
   1.50606  -0.67796   0.81475
   0.65607   1.70069   0.22110
  -0.83528   0.10640   1.64671
