\\vmware-host\Shared Folders\Desktop\SiHyperlaueFinal_shielded_results\results_00044.STR
Number of grains:       1
Grain no:       1   Grainlist file index:       1    Number of peaks:      33
no   x(exp)  y(exp)  h  k  l xdev  ydev  angdev  energy  dspace  twotheta  intens   integr  xwidth   ywidth  tilt  rfactor   pearson  xcentroid  ycentroid
     2      392.62408      871.98615    -2     4    -2  -0.32538  -0.11025   0.01887  12.44760   0.11105  53.29167       59034.00      204836.61     1.79651     2.07103   178.17236     0.21397     0.00000   746.61823   746.61823
     5      746.30255      951.28992    -3     3    -1  -0.32812   0.53301   0.02132  11.59358   0.12490  50.69597       49193.00      127233.61     1.66786     1.86617   101.66875     0.19642     0.00000  1026.74390  1026.74390
    13      991.66785      299.62048    -4     2    -2   0.10595  -0.03855   0.00420   8.25874   0.11084  85.25725       49430.00       85359.61     1.23203     1.55342   179.16614     0.22842     0.00000   282.87354   282.87354
     3      546.03076      225.15082    -3     3    -3   0.11838   0.19516   0.00845   8.45281   0.10446  89.18949       38522.00       58414.61     1.23530     1.23733   128.56871     0.18429     0.00000   992.00964   992.00964
     6     1026.42737      909.52936    -5     3    -1  -0.27925   0.26784   0.01404  14.49344   0.09197  55.43246       45667.00      122921.61     1.60818     1.98097   120.64578     0.23788     0.00000   925.34155   925.34155
     7      924.98798      683.06403    -6     4    -2   0.08694   0.00942   0.00404  16.08292   0.07268  64.06064        1051.00        2311.61     1.15294     1.47875     2.95564     0.07921     0.00000    62.01022    62.01022
    34       61.81544      407.68817    -1     3    -3   0.23247   0.29369   0.01262   7.85973   0.12446  78.64946         522.00        2764.24     1.23885     2.33164     5.66252     0.52932     0.00000   615.84363   615.84363
     4      426.61600      666.12823    -3     5    -3   0.45918  -0.13228   0.02534  14.35955   0.08292  62.75093       79940.00      263696.63     1.79287     1.87301     2.21908     0.23126     0.00000   546.37299   546.37299
    14      648.66724      500.24771    -6     6    -4   0.15739   0.01185   0.00820  18.19132   0.05795  72.04352       14766.00       26300.61     1.23112     1.47109     5.13663     0.19206     0.00000   258.90625   258.90625
     8      668.66663      570.51508    -5     5    -3   0.10040  -0.03231   0.00541  15.64173   0.07079  68.09107       48489.00      221571.61     1.90089     2.75683   175.31207     0.30512     0.00000   426.82248   426.82248
     9      868.07916      257.32578    -5     3    -3   0.09003   0.19819   0.00710  10.82874   0.08280  87.48538       25122.00       50894.61     1.08902     1.85423     0.01665     0.19666     0.00000   649.00146   649.00146
    11      331.58685      270.35989    -4     6    -6  -0.49805  -0.03178   0.02252  15.68237   0.05785  86.21115       32371.00       87863.61     1.66011     1.94306   145.59747     0.22278     0.00000   868.38684   868.38684
    10      282.60870      288.47223    -3     5    -5  -0.42474  -0.03568   0.01888  12.97650   0.07065  85.10112       63330.00       93118.61     1.08397     1.50730     0.02245     0.19340     0.00000   669.00140   669.00140
    19      258.60989      619.58374    -3     7    -5  -0.05522  -0.37734   0.01045  19.09071   0.05964  65.98088       23993.00       46973.61     1.24225     1.68724     7.20307     0.23900     0.00000   129.69510   129.69510
    17      858.86011      567.52295    -7     5    -3   0.17082  -0.26237   0.01106  18.24936   0.05968  69.39065        8845.00       22264.61     1.08533     1.94777   179.96465     0.30343     0.00000   464.00775   464.00775
    31      475.00214      454.87540    -6     8    -6   0.03216   0.02518   0.00185  21.96834   0.04659  74.55570         567.00        2303.61     1.20534     1.89921     7.55134     0.10485     0.00000   699.00488   699.00488
    20      463.66849      498.17224    -5     7    -5   0.35099  -0.13244   0.01874  19.31491   0.05462  71.98164       15208.00       30983.61     1.17132     1.73575   177.68921     0.22380     0.00000   439.08633   439.08633
    22      721.83881      228.64255    -8     6    -6   0.06147   0.03851   0.00301  18.98040   0.04655  89.11389       26143.00       38964.61     1.17135     1.28851   179.08286     0.20097     0.00000   753.86700   753.86700
    15      129.38136       39.61869    -3     5    -7  -0.21616   0.23044   0.01024  13.62016   0.05948  99.85695       16107.00       34847.61     1.48488     1.58260    12.63344     0.22846     0.00000   859.20032   859.20032
    18      438.70074       20.97372    -6     6    -8   0.42482   0.31031   0.01956  17.13967   0.04649 102.15970       10538.00       20367.61     1.22328     1.49932   177.88750     0.21516     0.00000   722.15918   722.15918
    30     1012.68982      601.57635    -9     5    -3   0.01617  -0.14322   0.00371  21.60222   0.05069  68.95852        5896.00       10061.61     1.11296     1.35271   177.90027     0.15274     0.00000   262.02515   262.02515
    16      753.58649      232.69659    -7     5    -5  -0.32696   0.21404   0.01589  16.22813   0.05456  88.87364         998.00        3498.61     1.60328     1.76550   165.46509     0.11668     0.00000   475.06146   475.06146
    21      145.60951      355.19174    -3     7    -7  -0.05410  -0.03197   0.00246  18.13760   0.05245  81.32986        1338.00        3589.61     1.31187     1.55479   173.64888     0.11066     0.00000  1012.99646  1012.99646
    23      364.74713      259.68518    -5     7    -7  -0.04111  -0.07971   0.00318  18.42387   0.04893  86.88849        7973.00       20854.61     1.25084     1.89664   179.37976     0.18208     0.00000   145.92216   145.92216
    29      784.12811       52.55214   -10     6    -8  -0.04663  -0.07870   0.00307  21.07641   0.03835 100.15026        4454.00       12560.61     1.37228     1.57207     0.00000     0.24147     0.00000   823.13647   823.13647
    32      300.67697       93.01557    -6     8   -10  -0.06796  -0.00334   0.00272  21.53340   0.03834  97.34154        2959.00        6206.61     1.08622     1.52172     3.12816     0.15449     0.00000   454.99435   454.99435
    24      919.91235      273.32214    -9     5    -5   0.11030  -0.08993   0.00519  19.04911   0.04744  86.63055       11048.00       17987.61     1.20300     1.28968     1.40012     0.17935     0.00000   365.09521   365.09521
    26       27.56239      162.42937    -3     7    -9   0.32628   0.03390   0.01100  18.66336   0.04597  92.52899         845.00        2706.61     1.11036     1.84258   176.15298     0.10814     0.00000   301.00064   301.00064
    25      822.78455       31.46668    -9     5    -7   0.25231  -0.20317   0.01097  18.39877   0.04356 101.32866         979.00        4339.61     1.53088     1.80642   169.44191     0.15473     0.00000   784.09064   784.09064
    27      261.67899       78.66265    -5     7    -9  -0.07445  -0.04736   0.00319  18.84920   0.04354  98.10676        4145.00       12679.61     1.62823     1.82165    17.77947     0.19866     0.00000   920.14258   920.14258
    35      698.72308      226.38229    -9     7    -7   0.06520  -0.12447   0.00495  21.74959   0.04058  89.24927           0.00           0.00     0.00000     0.00000     0.00000     0.00000     0.00000     0.00000     0.00000
    28      454.66684       47.76567    -7     7    -9  -0.00110   0.03036   0.00095  19.88954   0.04053 100.53970        4322.00       10730.61     1.41793     1.72000   167.45872     0.17708     0.00000    27.91194    27.91194
    33      971.53912       85.60015   -11     5    -7  -0.35597  -0.31106   0.01565  21.19155   0.03885  97.70662         682.00        2632.61     1.40032     1.59095    12.88988     0.12024     0.00000   971.96558   971.96558
latticeparameters=   0.54324   0.54487   0.54091  89.94869  90.19501  90.25775
dpsx, dpsy: 179.00000 168.38699
dd, xcent, ycent:      150.57201      540.60303      212.87601
pitch,yaw,roll:  -0.22645   0.61642   0.00000
dev1, dev2, pixdev:   0.01237   0.01213   0.25581
deviatoric strain in crystal reference u1 u2 u3 (*10^3)
   0.43411  -2.25704  -1.69525
  -2.25704   3.42866   0.43845
  -1.69525   0.43845  -3.84938
deviatoric strain in sample reference X Y Z (*10^3)
  -0.26475  -0.84762   0.49186
  -0.84762   4.66589   0.18551
   0.49186   0.18551  -4.38775
deviatoric principal strains (*10^3):   4.80867  -0.34072  -4.45457
deviatoric strain principal axes in sample reference:
  -0.16373   0.98644   0.01114
   0.97883   0.16104   0.12634
  -0.12284  -0.03159   0.99192
deviatoric stress in crystal reference u1 u2 u3 (MPa)
       45.00449     -358.91379     -269.57870
     -358.91379      349.55099       69.72186
     -269.57870       69.72186     -390.62622
deviatoric stress in sample reference X Y Z (MPa)
      -37.90941     -197.90646      -27.94095
     -197.90646      571.49127       22.79642
      -27.94095       22.79642     -529.65265
deviatoric principal stresses (MPa):      630.88702      -95.59176     -531.36597
deviatoric stress principal axes in sample reference:
       -0.28464        0.95829        0.02568
       -0.95722       -0.28558        0.04662
        0.05201       -0.01131        0.99858
total strain in sample reference X Y Z (*10^3)
   1.53973  -0.84762   0.49186
  -0.84762   6.47037   0.18551
   0.49186   0.18551  -2.58326
total principal strains (*10^3):   6.61316   1.46377  -2.65008
total strain principal axes in sample reference:
  -0.16373   0.98644   0.01114
   0.97883   0.16104   0.12634
  -0.12284  -0.03159   0.99192
total stress in crystal reference u1 u2 u3 (MPa)
      574.65710     -358.91379     -269.57870
     -358.91379      879.20361       69.72186
     -269.57870       69.72186      139.02641
total stress in sample reference X Y Z (MPa)
      491.74323     -197.90646      -27.94095
     -197.90646     1101.14392       22.79642
      -27.94095       22.79642        0.00000
total principal stresses (MPa):     1160.53955      434.06091       -1.71335
total stress principal axes in sample reference:
       -0.28464        0.95829        0.02568
       -0.95722       -0.28558        0.04662
        0.05201       -0.01131        0.99858
dilatational strain (*10^-3):        1.80449
hydrostatic stress (MPa):      530.96240
Von Mises stress (MPa):     1016.98145
equivalent strain (*10^-3):        5.35926
equivalent stress (MPa):     1016.98145
maximum resolved shear stress:       14.30399
coordinates of a, b, c in X, Y, Z
   0.44440  -0.20244   0.23850
   0.19253   0.50581   0.06500
  -0.24574   0.03224   0.48106
coordinates of a*, b*, c* in X, Y, Z
   1.50605  -0.67797   0.81477
   0.65602   1.70062   0.22113
  -0.83532   0.10635   1.64673
