\\vmware-host\Shared Folders\Desktop\SiHyperlaueFinal_shielded_results\results_00123.STR
Number of grains:       1
Grain no:       1   Grainlist file index:       1    Number of peaks:      32
no   x(exp)  y(exp)  h  k  l xdev  ydev  angdev  energy  dspace  twotheta  intens   integr  xwidth   ywidth  tilt  rfactor   pearson  xcentroid  ycentroid
     3      392.64200      872.03070    -2     4    -2  -0.29673  -0.11665   0.01728  12.45031   0.11103  53.28987       24265.00       37965.74     1.24246     1.24709   155.39114     0.18397     0.00000   992.03412   992.03412
     6      746.40204      951.32770    -3     3    -1  -0.40334   0.48971   0.02476  11.59492   0.12489  50.69637       32891.00       86956.73     1.70894     1.81389   116.50611     0.25021     0.00000   925.35089   925.35089
    13      991.68726      299.61832    -4     2    -2   0.14651  -0.10983   0.00646   8.25866   0.11083  85.26166       12078.00       20918.74     1.19080     1.43507     3.38169     0.17946     0.00000   258.93250   258.93250
     4      546.07831      225.17300    -3     3    -3   0.08089   0.17122   0.00676   8.45359   0.10445  89.18961       37672.00      137031.73     1.83159     1.88147    23.37928     0.22493     0.00000   546.38336   546.38336
     7     1026.48828      909.53296    -5     3    -1  -0.28482   0.23161   0.01395  14.49384   0.09196  55.43446       29924.00      144984.73     1.90771     2.93680   175.55885     0.31086     0.00000   426.89108   426.89108
     5      925.00153      682.98877    -6     4    -2   0.11359   0.05221   0.00534  16.08355   0.07267  64.06262       31553.00       77865.73     1.55883     1.81746   167.75868     0.22433     0.00000  1026.78015  1026.78015
     2      426.65399      666.13434    -3     5    -3   0.45679  -0.10102   0.02515  14.36231   0.08291  62.74891       27841.00       84266.73     1.66349     2.02055   178.46904     0.21196     0.00000   746.69025   746.69025
    12      648.66754      500.21802    -6     6    -4   0.17544   0.04212   0.00921  18.19325   0.05794  72.04354       30927.00       51379.74     1.20760     1.50520   179.00960     0.21179     0.00000   282.89429   282.89429
     8      668.66693      570.49811    -5     5    -3   0.11982  -0.01478   0.00637  15.64343   0.07078  68.09111       19178.00       40542.74     1.08977     1.87258   179.95924     0.19018     0.00000   649.00702   649.00702
    14      868.13086      257.29205    -5     3    -3   0.07346   0.17377   0.00611  10.82889   0.08279  87.48898       11705.00       27250.74     1.50394     1.68105    40.62068     0.21653     0.00000   859.20770   859.20770
     9      331.59894      270.38083    -4     6    -6  -0.48502  -0.01699   0.02191  15.68469   0.05784  86.20888       44879.00       66954.73     1.08407     1.53096   179.91177     0.19211     0.00000   668.99902   668.99902
    10      282.61835      288.49628    -3     5    -5  -0.40230  -0.01694   0.01785  12.97856   0.07064  85.09843       12851.00       37596.74     1.70816     1.96137    48.76544     0.19676     0.00000   868.35181   868.35181
    19      258.62540      619.60205    -3     7    -5  -0.01253  -0.34522   0.00908  19.09483   0.05963  65.97787       12085.00       24326.74     1.17510     1.71152   177.66188     0.21334     0.00000   439.06842   439.06842
    17      858.89911      567.49481    -7     5    -3   0.16377  -0.26390   0.01083  18.25023   0.05967  69.39248        8308.00       17030.74     1.23446     1.55932   177.89786     0.21048     0.00000   722.14679   722.14679
    31      475.03854      454.86337    -6     8    -6   0.01876   0.06299   0.00216  21.97163   0.04658  74.55412        2550.00        5495.74     1.08000     1.49126   179.94728     0.15112     0.00000   454.96634   454.96634
    20      463.66946      498.15918    -5     7    -5   0.37564  -0.09028   0.01984  19.31799   0.05461  71.97990        1107.00        3138.74     1.30224     1.65388   174.18468     0.10311     0.00000  1012.99902  1012.99902
    21      721.86780      228.63298    -8     6    -6   0.04913   0.01376   0.00224  18.98131   0.04655  89.11610       20164.00       29243.74     1.15195     1.25868   179.20375     0.18451     0.00000   753.89514   753.89514
    15      129.38921       39.63028    -3     5    -7  -0.19979   0.26539   0.01055  13.62197   0.05947  99.85441         822.00        3011.74     1.56801     1.82212   170.13020     0.10692     0.00000   475.04440   475.04440
    18      438.70178       20.95498    -6     6    -8   0.42285   0.32341   0.01969  17.14109   0.04648 102.16005       15663.00       30181.74     1.21647     1.67794     6.01408     0.21538     0.00000   129.73712   129.73712
    30     1012.69958      601.52856    -9     5    -3   0.06420  -0.14185   0.00465  21.60244   0.05069  68.96140         434.00        2044.74     1.30945     2.06055     7.13777     0.09660     0.00000   699.04926   699.04926
    16      753.59808      232.68774    -7     5    -5  -0.31893   0.18308   0.01517  16.22878   0.05456  88.87619        7353.00       17938.74     1.08885     1.95157     0.01559     0.29622     0.00000   464.01343   464.01343
    22      145.61528      355.24039    -3     7    -7  -0.00137  -0.02309   0.00068  18.14099   0.05244  81.32633        6672.00       16607.74     1.24015     1.88096   179.32996     0.17179     0.00000   145.91714   145.91714
    23      364.76437      259.68887    -5     7    -7  -0.03726  -0.05294   0.00241  18.42644   0.04893  86.88654        8643.00       14805.74     1.20594     1.32977     1.50949     0.17967     0.00000   365.10913   365.10913
    29      784.13324       52.49985   -10     6    -8  -0.02987  -0.09824   0.00326  21.07669   0.03835 100.15459        4862.00        8534.74     1.12082     1.33389   177.04285     0.14985     0.00000   262.01535   262.01535
    32      300.67923       92.95959    -6     8   -10  -0.05777   0.07922   0.00341  21.53599   0.03833  97.33993         576.00        2313.74     1.31642     1.86584    11.18008     0.10613     0.00000   971.97552   971.97552
    25      919.96136      273.25208    -9     5    -5   0.10581  -0.08509   0.00496  19.04919   0.04744  86.63454         780.00        2376.74     1.12497     1.74902   175.39490     0.10067     0.00000   301.01498   301.01498
    26       27.57270      162.45963    -3     7    -9   0.37246   0.06774   0.01264  18.66638   0.04597  92.52549        2978.00       10173.74     1.74955     1.83695    92.84490     0.17823     0.00000   920.14893   920.14893
    24      822.88397       31.34434    -9     5    -7   0.18121  -0.16481   0.00818  18.39884   0.04356 101.33359         792.00        3582.74     1.73413     1.75505    46.35972     0.13256     0.00000   784.08197   784.08197
    27      261.68011       78.66852    -5     7    -9  -0.06117  -0.02206   0.00245  18.85152   0.04354  98.10491        3659.00        8957.74     1.39812     1.66697   167.81421     0.16542     0.00000    27.91016    27.91016
    35      698.72980      226.31360    -9     7    -7   0.07329  -0.08596   0.00429  21.75075   0.04057  89.25123           0.00           0.00     0.00000     0.00000     0.00000     0.00000     0.00000     0.00000     0.00000
    28      454.66693       47.76333    -7     7    -9  -0.00037   0.02768   0.00087  19.89121   0.04052 100.54001        3404.00       10412.74     1.48313     1.91267    37.88784     0.21353     0.00000   823.13165   823.13165
    33      971.58624       85.51760   -11     5    -7  -0.34246  -0.33281   0.01567  21.19114   0.03885  97.71245         610.00        2434.22     1.36405     1.79847    16.01220     0.11308     0.00000   971.97046   971.97046
latticeparameters=   0.54330   0.54478   0.54093  89.94888  90.19064  90.25810
dpsx, dpsy: 179.00000 168.38699
dd, xcent, ycent:      150.57201      540.60303      212.87601
pitch,yaw,roll:  -0.22645   0.61642   0.00000
dev1, dev2, pixdev:   0.01233   0.01215   0.24818
deviatoric strain in crystal reference u1 u2 u3 (*10^3)
   0.55748  -2.25974  -1.65729
  -2.25974   3.26864   0.43691
  -1.65729   0.43691  -3.81335
deviatoric strain in sample reference X Y Z (*10^3)
  -0.22420  -0.93253   0.53399
  -0.93253   4.54569   0.13435
   0.53399   0.13435  -4.30872
deviatoric principal strains (*10^3):   4.72165  -0.32422  -4.38465
deviatoric strain principal axes in sample reference:
  -0.18490   0.98275   0.00369
   0.97363   0.18267   0.13664
  -0.13361  -0.02886   0.99061
deviatoric stress in crystal reference u1 u2 u3 (MPa)
       57.51250     -359.34311     -263.54199
     -359.34311      333.23804       69.47806
     -263.54199       69.47806     -387.00079
deviatoric stress in sample reference X Y Z (MPa)
      -35.45741     -206.15837      -22.55025
     -206.15837      559.20325       16.76299
      -22.55025       16.76299     -519.99609
deviatoric principal stresses (MPa):      624.13483      -99.28978     -521.09528
deviatoric stress principal axes in sample reference:
       -0.29888        0.95408        0.01987
       -0.95331       -0.29945        0.03917
        0.04332       -0.00724        0.99904
total strain in sample reference X Y Z (*10^3)
   1.54738  -0.93253   0.53399
  -0.93253   6.31728   0.13435
   0.53399   0.13435  -2.53713
total principal strains (*10^3):   6.49323   1.44737  -2.61307
total strain principal axes in sample reference:
  -0.18490   0.98275   0.00369
   0.97363   0.18267   0.13664
  -0.13361  -0.02886   0.99061
total stress in crystal reference u1 u2 u3 (MPa)
      577.50861     -359.34311     -263.54199
     -359.34311      853.23413       69.47806
     -263.54199       69.47806      132.99530
total stress in sample reference X Y Z (MPa)
      484.53867     -206.15837      -22.55025
     -206.15837     1079.19934       16.76299
      -22.55025       16.76299        0.00000
total principal stresses (MPa):     1144.13098      420.70624       -1.09918
total stress principal axes in sample reference:
       -0.29888        0.95408        0.01987
       -0.95331       -0.29945        0.03917
        0.04332       -0.00724        0.99904
dilatational strain (*10^-3):        1.77159
hydrostatic stress (MPa):      521.24597
Von Mises stress (MPa):     1003.19861
equivalent strain (*10^-3):        5.26778
equivalent stress (MPa):     1003.19861
maximum resolved shear stress:       23.46154
coordinates of a, b, c in X, Y, Z
   0.44453  -0.20241   0.23860
   0.19245   0.50583   0.06495
  -0.24577   0.03225   0.48114
coordinates of a*, b*, c* in X, Y, Z
   1.50617  -0.67767   0.81478
   0.65597   1.70121   0.22103
  -0.83547   0.10643   1.64683
