\\vmware-host\Shared Folders\Desktop\SiHyperlaueFinal_shielded_results\results_00060.STR
Number of grains:       1
Grain no:       1   Grainlist file index:       1    Number of peaks:      33
no   x(exp)  y(exp)  h  k  l xdev  ydev  angdev  energy  dspace  twotheta  intens   integr  xwidth   ywidth  tilt  rfactor   pearson  xcentroid  ycentroid
     2      392.62726      871.97815    -2     4    -2  -0.32620  -0.12350   0.01897  12.44796   0.11105  53.29254       58962.00      206345.17     1.78699     2.07638   178.52545     0.20893     0.00000   746.62909   746.62909
     5      746.31226      951.26294    -3     3    -1  -0.33934   0.53280   0.02188  11.59369   0.12490  50.69699       49255.00      128063.16     1.61768     1.93174   107.24479     0.18453     0.00000  1026.75476  1026.75476
    13      991.67181      299.61438    -4     2    -2   0.11985  -0.04748   0.00478   8.25870   0.11084  85.25817       49695.00       85812.16     1.22567     1.56461   179.21742     0.22687     0.00000   282.87274   282.87274
     3      546.03998      225.14021    -3     3    -3   0.11251   0.19605   0.00830   8.45291   0.10446  89.19013       38199.00       58369.16     1.24182     1.24468    50.67778     0.18603     0.00000   992.01270   992.01270
     6     1026.43079      909.50897    -5     3    -1  -0.27544   0.26926   0.01390  14.49343   0.09197  55.43329       46055.00      123055.16     1.65607     1.92625   159.62157     0.25260     0.00000   925.35199   925.35199
     7      924.99878      683.04358    -6     4    -2   0.08201   0.01383   0.00381  16.08297   0.07268  64.06147         953.00        2418.17     1.17328     1.51125     0.57325     0.09103     0.00000    62.02538    62.02538
    34       61.84540      407.68698    -1     3    -3   0.21371   0.29032   0.01200   7.85998   0.12446  78.64966         522.00        2764.24     1.23885     2.33164     5.66252     0.52932     0.00000   615.84363   615.84363
     4      426.62384      666.11841    -3     5    -3   0.45315  -0.13488   0.02502  14.35996   0.08292  62.75157       79627.00      263594.16     1.80196     1.87246     9.94648     0.23090     0.00000   546.38135   546.38135
    14      648.66711      500.22778    -6     6    -4   0.15894   0.01998   0.00829  18.19159   0.05795  72.04422       14734.00       25970.17     1.21559     1.45700     4.54522     0.19185     0.00000   258.91769   258.91769
     8      668.66675      570.50775    -5     5    -3   0.10119  -0.03818   0.00549  15.64195   0.07079  68.09181       47437.00      221736.17     1.90385     2.79185   175.01453     0.30671     0.00000   426.83063   426.83063
     9      868.09094      257.30725    -5     3    -3   0.08999   0.20185   0.00719  10.82873   0.08280  87.48630       24612.00       51132.16     1.08986     1.86506     0.04094     0.19670     0.00000   649.00073   649.00073
    11      331.58780      270.35849    -4     6    -6  -0.49519  -0.03598   0.02240  15.68272   0.05785  86.21151       31829.00       87835.16     1.73554     1.89327   150.49916     0.22395     0.00000   868.39294   868.39294
    10      282.61124      288.46704    -3     5    -5  -0.42269  -0.03542   0.01879  12.97681   0.07064  85.10143       62827.00       93090.16     1.08451     1.52441     0.12393     0.19209     0.00000   669.00323   669.00323
    19      258.61526      619.59186    -3     7    -5  -0.05446  -0.39508   0.01088  19.09135   0.05964  65.98134       23784.00       46697.16     1.24635     1.68757     7.11386     0.23744     0.00000   129.70235   129.70235
    17      858.87024      567.51703    -7     5    -3   0.16583  -0.27099   0.01104  18.24944   0.05968  69.39147        8845.00       22114.17     1.08853     1.94299     0.06431     0.30250     0.00000   464.01810   464.01810
    31      474.98190      454.83133    -6     8    -6   0.05419   0.06081   0.00339  21.96884   0.04659  74.55621         532.00        2286.17     1.28282     1.93825     6.76060     0.10536     0.00000   699.01526   699.01526
    20      463.66940      498.16766    -5     7    -5   0.35180  -0.13672   0.01881  19.31538   0.05462  71.98216       15257.00       30779.17     1.17632     1.72862   177.71362     0.22037     0.00000   439.06250   439.06250
    22      721.84705      228.63977    -8     6    -6   0.05980   0.02819   0.00282  18.98048   0.04655  89.11473       26473.00       39033.16     1.16656     1.28161   178.88086     0.19801     0.00000   753.87085   753.87085
    15      129.38150       39.61857    -3     5    -7  -0.21125   0.22460   0.01000  13.62039   0.05948  99.85732       15806.00       34804.16     1.47736     1.61844    29.32867     0.22605     0.00000   859.19348   859.19348
    18      438.70148       20.96951    -6     6    -8   0.42810   0.30277   0.01956  17.13981   0.04649 102.16044       10154.00       20063.17     1.23277     1.51997   177.73514     0.21509     0.00000   722.17053   722.17053
    30     1012.69299      601.57214    -9     5    -3   0.02475  -0.15272   0.00405  21.60220   0.05069  68.95932        5746.00       10058.17     1.11740     1.35562   178.73871     0.15767     0.00000   262.00516   262.00516
    16      753.58923      232.69443    -7     5    -5  -0.32221   0.20261   0.01555  16.22818   0.05456  88.87451         997.00        3282.17     1.51993     1.76450   172.32588     0.10941     0.00000   475.04663   475.04663
    21      145.61157      355.19815    -3     7    -7  -0.04806  -0.04246   0.00239  18.13813   0.05245  81.33007        1329.00        3602.17     1.32066     1.57140   171.92010     0.11149     0.00000  1013.00946  1013.00946
    23      364.75552      259.68793    -5     7    -7  -0.04608  -0.08861   0.00355  18.42425   0.04893  86.88888        7984.00       20696.17     1.25071     1.89677   179.33180     0.17949     0.00000   145.92609   145.92609
    29      784.13318       52.57941   -10     6    -8  -0.03894  -0.12450   0.00415  21.07634   0.03835 100.15136        4386.00       12535.17     1.44205     1.70280    28.62285     0.24739     0.00000   823.14575   823.14575
    32      300.68610       92.98087    -6     8   -10  -0.07330   0.02410   0.00305  21.53374   0.03834  97.34200        2917.00        6333.17     1.07990     1.52839     0.57004     0.16082     0.00000   454.98828   454.98828
    25      919.90643      273.31488    -9     5    -5   0.13032  -0.09778   0.00600  19.04906   0.04744  86.63148         979.00        4158.17     1.54263     1.83220   166.13849     0.14511     0.00000   784.10217   784.10217
    26       27.56772      162.40968    -3     7    -9   0.32968   0.05025   0.01115  18.66379   0.04597  92.52919         889.00        2679.17     1.13144     1.76528   175.94530     0.10929     0.00000   300.99915   300.99915
    24      822.82330       31.42437    -9     5    -7   0.22889  -0.18097   0.00990  18.39868   0.04356 101.32982       10933.00       18191.17     1.20882     1.30999     1.30194     0.18498     0.00000   365.10635   365.10635
    27      261.68057       78.65855    -5     7    -9  -0.07203  -0.05020   0.00315  18.84949   0.04354  98.10720        4095.00       12248.17     1.61915     1.82485    18.88453     0.19212     0.00000   920.14252   920.14252
    35      698.73352      226.30681    -9     7    -7   0.06073  -0.06170   0.00337  21.74970   0.04058  89.25010           0.00           0.00     0.00000     0.00000     0.00000     0.00000     0.00000     0.00000     0.00000
    28      454.66653       47.76804    -7     7    -9   0.00322   0.01669   0.00054  19.88971   0.04053 100.54041        4363.00       10954.17     1.39996     1.74537   170.79353     0.17530     0.00000    27.91573    27.91573
    33      971.58508       85.56801   -11     5    -7  -0.37873  -0.29950   0.01611  21.19139   0.03885  97.70774         712.00        2632.17     1.32120     1.68916    13.11322     0.11741     0.00000   971.98077   971.98077
latticeparameters=   0.54325   0.54484   0.54092  89.94797  90.19377  90.25801
dpsx, dpsy: 179.00000 168.38699
dd, xcent, ycent:      150.57201      540.60303      212.87601
pitch,yaw,roll:  -0.22645   0.61642   0.00000
dev1, dev2, pixdev:   0.01236   0.01213   0.25729
deviatoric strain in crystal reference u1 u2 u3 (*10^3)
   0.45675  -2.25917  -1.68446
  -2.25917   3.38396   0.44474
  -1.68446   0.44474  -3.82754
deviatoric strain in sample reference X Y Z (*10^3)
  -0.26207  -0.87145   0.49612
  -0.87145   4.63242   0.17875
   0.49612   0.17875  -4.35718
deviatoric principal strains (*10^3):   4.78387  -0.34541  -4.42530
deviatoric strain principal axes in sample reference:
  -0.16921   0.98553   0.01009
   0.97765   0.16655   0.12832
  -0.12478  -0.03158   0.99168
deviatoric stress in crystal reference u1 u2 u3 (MPa)
       47.29267     -359.25391     -267.86252
     -359.25391      344.99005       70.72304
     -267.86252       70.72304     -388.41977
deviatoric stress in sample reference X Y Z (MPa)
      -38.29209     -200.42134      -27.11256
     -200.42134      568.16541       22.16813
      -27.11256       22.16813     -526.01031
deviatoric principal stresses (MPa):      629.14496      -97.64869     -527.63330
deviatoric stress principal axes in sample reference:
       -0.28844        0.95717        0.02514
       -0.95614       -0.28933        0.04554
        0.05087       -0.01090        0.99865
total strain in sample reference X Y Z (*10^3)
   1.53000  -0.87145   0.49612
  -0.87145   6.42449   0.17875
   0.49612   0.17875  -2.56511
total principal strains (*10^3):   6.57595   1.44667  -2.63322
total strain principal axes in sample reference:
  -0.16921   0.98553   0.01009
   0.97765   0.16655   0.12832
  -0.12478  -0.03158   0.99168
total stress in crystal reference u1 u2 u3 (MPa)
      573.30298     -359.25391     -267.86252
     -359.25391      871.00037       70.72304
     -267.86252       70.72304      137.59058
total stress in sample reference X Y Z (MPa)
      487.71823     -200.42134      -27.11256
     -200.42134     1094.17566       22.16813
      -27.11256       22.16813        0.00000
total principal stresses (MPa):     1155.15527      428.36166       -1.62295
total stress principal axes in sample reference:
       -0.28844        0.95717        0.02514
       -0.95614       -0.28933        0.04554
        0.05087       -0.01090        0.99865
dilatational strain (*10^-3):        1.79208
hydrostatic stress (MPa):      527.29797
Von Mises stress (MPa):     1012.73187
equivalent strain (*10^-3):        5.32841
equivalent stress (MPa):     1012.73187
maximum resolved shear stress:       16.79282
coordinates of a, b, c in X, Y, Z
   0.44443  -0.20244   0.23852
   0.19252   0.50581   0.06498
  -0.24573   0.03226   0.48108
coordinates of a*, b*, c* in X, Y, Z
   1.50608  -0.67791   0.81475
   0.65605   1.70075   0.22106
  -0.83532   0.10639   1.64673
