\\vmware-host\Shared Folders\Desktop\SiHyperlaueFinal_shielded_results\results_00036.STR
Number of grains:       1
Grain no:       1   Grainlist file index:       1    Number of peaks:      33
no   x(exp)  y(exp)  h  k  l xdev  ydev  angdev  energy  dspace  twotheta  intens   integr  xwidth   ywidth  tilt  rfactor   pearson  xcentroid  ycentroid
     2      392.62219      871.98810    -2     4    -2  -0.32672  -0.11237   0.01896  12.44761   0.11105  53.29169       58965.00      202775.39     1.79919     2.06029   178.00433     0.21571     0.00000   746.61584   746.61584
     5      746.29974      951.30011    -3     3    -1  -0.33026   0.52964   0.02140  11.59368   0.12490  50.69567       48914.00      126989.40     1.67970     1.84778   104.70575     0.19858     0.00000  1026.74377  1026.74377
    13      991.66809      299.62393    -4     2    -2   0.10186  -0.03153   0.00399   8.25877   0.11084  85.25664       49060.00       85357.40     1.23965     1.55958   179.23332     0.22849     0.00000   282.87122   282.87122
     3      546.02515      225.15485    -3     3    -3   0.12297   0.19434   0.00858   8.45280   0.10446  89.18928       38879.00       58477.39     1.22648     1.23516   165.83725     0.18216     0.00000   992.01013   992.01013
     6     1026.42285      909.53326    -5     3    -1  -0.28260   0.27507   0.01425  14.49361   0.09197  55.43192       45633.00      122543.40     1.59819     1.96412   109.61257     0.24683     0.00000   925.33313   925.33313
     7      924.97662      683.06354    -6     4    -2   0.09265   0.01954   0.00430  16.08306   0.07268  64.06012        1057.00        2309.40     1.13612     1.43749   179.69981     0.08004     0.00000    62.02073    62.02073
    34       61.80165      407.68811    -1     3    -3   0.24214   0.28986   0.01284   7.85968   0.12446  78.64969         522.00        2764.24     1.23885     2.33164     5.66252     0.52932     0.00000   615.84363   615.84363
     4      426.61316      666.13086    -3     5    -3   0.45926  -0.13366   0.02535  14.35957   0.08292  62.75087       80008.00      263112.41     1.78683     1.87400     0.73812     0.23190     0.00000   546.37195   546.37195
    14      648.66693      500.24597    -6     6    -4   0.15499   0.01881   0.00808  18.19139   0.05795  72.04321       14584.00       25831.39     1.22761     1.45947     5.14914     0.19065     0.00000   258.91724   258.91724
     8      668.66681      570.52020    -5     5    -3   0.09711  -0.03185   0.00524  15.64180   0.07079  68.09074       48514.00      220223.39     1.89932     2.74459   175.45415     0.30472     0.00000   426.82074   426.82074
     9      868.07452      257.33658    -5     3    -3   0.09216   0.19592   0.00709  10.82877   0.08280  87.48485       25150.00       50912.39     1.08939     1.85500   179.95978     0.19501     0.00000   648.99835   648.99835
    11      331.58582      270.36676    -4     6    -6  -0.49862  -0.03886   0.02256  15.68232   0.05785  86.21117       32751.00       87991.40     1.65108     1.93515   122.00819     0.22254     0.00000   868.38263   868.38263
    10      282.60583      288.46918    -3     5    -5  -0.42378  -0.03357   0.01883  12.97645   0.07065  85.10118       63780.00       93295.40     1.08415     1.49598     0.02397     0.19326     0.00000   668.99884   668.99884
    19      258.61115      619.59106    -3     7    -5  -0.05948  -0.38611   0.01074  19.09066   0.05964  65.98097       24016.00       47001.39     1.23861     1.69087     6.99948     0.23749     0.00000   129.69250   129.69250
    17      858.85321      567.53229    -7     5    -3   0.17329  -0.26311   0.01117  18.24948   0.05968  69.39015        8741.00       21864.39     1.08607     1.94832     0.02253     0.29890     0.00000   464.02283   464.02283
    31      474.98669      454.86743    -6     8    -6   0.04553   0.03544   0.00261  21.96835   0.04659  74.55556         570.00        2213.40     1.24803     1.85625     6.78846     0.10188     0.00000   699.04932   699.04932
    20      463.66803      498.17896    -5     7    -5   0.34922  -0.13707   0.01868  19.31492   0.05462  71.98152       15436.00       31144.39     1.16929     1.72821   177.67490     0.22242     0.00000   439.07440   439.07440
    22      721.83801      228.64371    -8     6    -6   0.06079   0.04348   0.00306  18.98043   0.04655  89.11349       25876.00       38894.39     1.17825     1.29438   177.24330     0.20298     0.00000   753.87018   753.87018
    15      129.37997       39.61962    -3     5    -7  -0.21711   0.22531   0.01017  13.62007   0.05948  99.85718       16170.00       34457.39     1.47106     1.56694    12.31217     0.22830     0.00000   859.19019   859.19019
    18      438.69922       20.96958    -6     6    -8   0.42641   0.31526   0.01969  17.13960   0.04649 102.15965       10456.00       20232.39     1.22412     1.50100   177.72304     0.21319     0.00000   722.15765   722.15765
    30     1012.68237      601.58276    -9     5    -3   0.01744  -0.13884   0.00362  21.60240   0.05069  68.95792        5827.00       10128.39     1.11294     1.34537   179.00072     0.15725     0.00000   262.01166   262.01166
    16      753.58484      232.69951    -7     5    -5  -0.32696   0.21777   0.01594  16.22816   0.05456  88.87322        1006.00        3329.40     1.58617     1.76784   170.25127     0.10806     0.00000   475.06216   475.06216
    21      145.60806      355.19141    -3     7    -7  -0.05577  -0.03449   0.00256  18.13751   0.05245  81.33003        1345.00        3555.40     1.29522     1.53070   172.89738     0.11079     0.00000  1012.99359  1012.99359
    23      364.75137      259.68771    -5     7    -7  -0.04678  -0.08194   0.00340  18.42382   0.04893  86.88847        7934.00       20737.39     1.25293     1.89555   179.32716     0.18161     0.00000   145.89987   145.89987
    29      784.10809       52.57082   -10     6    -8  -0.02697  -0.09050   0.00299  21.07640   0.03835 100.14984        4465.00       12548.39     1.38756     1.57903     0.00000     0.23747     0.00000   823.14081   823.14081
    33      300.67847       93.00625    -6     8   -10  -0.07045   0.00477   0.00283  21.53330   0.03834  97.34161         736.00        2862.40     1.38773     1.61353   110.61224     0.13167     0.00000   971.95404   971.95404
    25      919.92145      273.34995    -9     5    -5   0.09817  -0.10838   0.00511  19.04919   0.04744  86.62999         980.00        4141.40     1.52546     1.80254   160.00116     0.15312     0.00000   784.09399   784.09399
    26       27.56752      162.40115    -3     7    -9   0.31713   0.05709   0.01076  18.66323   0.04597  92.52926         872.00        2831.40     1.14248     1.80781   177.02927     0.11267     0.00000   301.02377   301.02377
    24      822.78870       31.46727    -9     5    -7   0.24783  -0.19626   0.01073  18.39877   0.04356 101.32821       11028.00       18315.39     1.20488     1.29983     1.24160     0.18702     0.00000   365.11414   365.11414
    27      261.67786       78.65823    -5     7    -9  -0.07452  -0.04484   0.00316  18.84909   0.04354  98.10687        4170.00       12330.39     1.63349     1.80633    85.67218     0.19279     0.00000   920.13873   920.13873
    36      698.72205      226.40308    -9     7    -7   0.06486  -0.13951   0.00533  21.74961   0.04058  89.24890           0.00           0.00     0.00000     0.00000     0.00000     0.00000     0.00000     0.00000     0.00000
    28      454.66595       47.77389    -7     7    -9  -0.00025   0.02333   0.00073  19.88947   0.04053 100.53962        4300.00       10954.39     1.39790     1.75526   169.49103     0.17793     0.00000    27.92199    27.92199
    32      971.53912       85.60917   -11     5    -7  -0.35771  -0.30998   0.01568  21.19159   0.03885  97.70604        2916.00        6431.40     1.08169     1.52932     2.24675     0.16709     0.00000   454.98492   454.98492
latticeparameters=   0.54323   0.54487   0.54092  89.94887  90.19459  90.25731
dpsx, dpsy: 179.00000 168.38699
dd, xcent, ycent:      150.57201      540.60303      212.87601
pitch,yaw,roll:  -0.22645   0.61642   0.00000
dev1, dev2, pixdev:   0.01239   0.01216   0.25720
deviatoric strain in crystal reference u1 u2 u3 (*10^3)
   0.43264  -2.25314  -1.69160
  -2.25314   3.42477   0.43687
  -1.69160   0.43687  -3.84406
deviatoric strain in sample reference X Y Z (*10^3)
  -0.26507  -0.84471   0.49154
  -0.84471   4.65936   0.18447
   0.49154   0.18447  -4.38095
deviatoric principal strains (*10^3):   4.80135  -0.34028  -4.44772
deviatoric strain principal axes in sample reference:
  -0.16340   0.98650   0.01107
   0.97887   0.16072   0.12641
  -0.12293  -0.03149   0.99192
deviatoric stress in crystal reference u1 u2 u3 (MPa)
       44.85317     -358.29355     -268.99799
     -358.29355      349.15286       69.47096
     -268.99799       69.47096     -390.08691
deviatoric stress in sample reference X Y Z (MPa)
      -37.94038     -197.38956      -27.82844
     -197.38956      570.65424       22.63218
      -27.82844       22.63218     -528.79474
deviatoric principal stresses (MPa):      629.82471      -95.40967     -530.49591
deviatoric stress principal axes in sample reference:
       -0.28436        0.95838        0.02555
       -0.95731       -0.28528        0.04657
        0.05192       -0.01122        0.99859
total strain in sample reference X Y Z (*10^3)
   1.53650  -0.84471   0.49154
  -0.84471   6.46093   0.18447
   0.49154   0.18447  -2.57938
total principal strains (*10^3):   6.60291   1.46128  -2.64616
total strain principal axes in sample reference:
  -0.16340   0.98650   0.01107
   0.97887   0.16072   0.12641
  -0.12293  -0.03149   0.99192
total stress in crystal reference u1 u2 u3 (MPa)
      573.64789     -358.29355     -268.99799
     -358.29355      877.94757       69.47096
     -268.99799       69.47096      138.70781
total stress in sample reference X Y Z (MPa)
      490.85434     -197.38956      -27.82844
     -197.38956     1099.44897       22.63218
      -27.82844       22.63218        0.00000
total principal stresses (MPa):     1158.61938      433.38507       -1.70120
total stress principal axes in sample reference:
       -0.28436        0.95838        0.02555
       -0.95731       -0.28528        0.04657
        0.05192       -0.01122        0.99859
dilatational strain (*10^-3):        1.80156
hydrostatic stress (MPa):      530.10107
Von Mises stress (MPa):     1015.28540
equivalent strain (*10^-3):        5.35107
equivalent stress (MPa):     1015.28540
maximum resolved shear stress:       14.06588
coordinates of a, b, c in X, Y, Z
   0.44440  -0.20244   0.23850
   0.19254   0.50580   0.06500
  -0.24573   0.03225   0.48106
coordinates of a*, b*, c* in X, Y, Z
   1.50605  -0.67799   0.81475
   0.65603   1.70062   0.22112
  -0.83530   0.10637   1.64673
