\\vmware-host\Shared Folders\Desktop\SiHyperlaueFinal_shielded_results\results_00020.STR
Number of grains:       1
Grain no:       1   Grainlist file index:       1    Number of peaks:      33
no   x(exp)  y(exp)  h  k  l xdev  ydev  angdev  energy  dspace  twotheta  intens   integr  xwidth   ywidth  tilt  rfactor   pearson  xcentroid  ycentroid
     2      392.61969      871.98456    -2     4    -2  -0.32861  -0.10767   0.01905  12.44806   0.11105  53.29166       76201.00      266157.28     1.81201     2.07123     0.00000     0.21893     0.00000   746.60388   746.60388
     4      746.28833      951.30878    -3     3    -1  -0.32902   0.52127   0.02125  11.59399   0.12490  50.69558      109039.00      353097.28     1.78077     1.87219     1.25762     0.23279     0.00000   546.37146   546.37146
    13      991.65839      299.61893    -4     2    -2   0.12072  -0.02518   0.00466   8.25878   0.11084  85.25659       59747.00      103786.28     1.23840     1.56012   179.14108     0.23259     0.00000   282.86945   282.86945
     3      546.01849      225.14970    -3     3    -3   0.12956   0.19942   0.00891   8.45288   0.10446  89.18928       51132.00       76182.28     1.23358     1.23774    59.13239     0.18176     0.00000   991.98730   991.98730
     6     1026.41284      909.54321    -5     3    -1  -0.27872   0.26991   0.01404  14.49384   0.09197  55.43165       49916.00      134179.28     1.61899     1.93731   102.46852     0.25222     0.00000   925.33392   925.33392
     7      924.96606      683.07446    -6     4    -2   0.09891   0.01285   0.00459  16.08330   0.07268  64.05987        2521.00        4389.29     1.13442     1.43732   179.81546     0.09522     0.00000    62.04462    62.04462
    29       61.80295      407.68262    -1     3    -3   0.24355   0.29618   0.01300   7.85985   0.12446  78.64963        4814.00       13339.29     1.45299     1.79524    74.11484     0.21905     0.00000   823.13727   823.13727
     5      426.60919      666.13214    -3     5    -3   0.45911  -0.13082   0.02533  14.36002   0.08292  62.75067       55241.00      144616.28     1.66756     1.86349   106.61550     0.19776     0.00000  1026.73315  1026.73315
    15      648.66705      500.26733    -6     6    -4   0.15059   0.00106   0.00784  18.19174   0.05795  72.04298       17365.00       36604.29     1.44898     1.55661    76.80764     0.22976     0.00000   859.20233   859.20233
     9      668.66675      570.52661    -5     5    -3   0.09184  -0.03445   0.00498  15.64213   0.07079  68.09051       27449.00       54472.29     1.08901     1.84253     0.00120     0.19881     0.00000   649.00433   649.00433
     8      868.06134      257.35632    -5     3    -3   0.11081   0.17603   0.00706  10.82879   0.08280  87.48487       56574.00      253817.28     1.89694     2.71859   175.32336     0.30519     0.00000   426.80731   426.80731
    12      331.58496      270.36584    -4     6    -6  -0.49825  -0.03678   0.02254  15.68256   0.05785  86.21109       37924.00       80362.28     1.29301     1.73439   178.16898     0.25011     0.00000   331.84344   331.84344
    10      282.60629      288.46848    -3     5    -5  -0.42445  -0.03152   0.01886  12.97667   0.07064  85.10110       71684.00      104267.28     1.08413     1.48691   179.92186     0.19315     0.00000   668.99890   668.99890
    19      258.60983      619.59076    -3     7    -5  -0.05869  -0.38249   0.01064  19.09126   0.05964  65.98080       28319.00       55588.29     1.24518     1.69109     7.24508     0.24506     0.00000   129.67763   129.67763
    17      858.85498      567.54694    -7     5    -3   0.16826  -0.27407   0.01119  18.24974   0.05968  69.38993        9041.00       23097.29     1.08726     1.94784   179.90718     0.30309     0.00000   464.02335   464.02335
    32      474.98743      454.84415    -6     8    -6   0.04171   0.06257   0.00291  21.96884   0.04659  74.55533        3131.00        6539.29     1.07817     1.49793     1.44440     0.16051     0.00000   454.97592   454.97592
    20      463.66949      498.18576    -5     7    -5   0.34437  -0.13970   0.01844  19.31540   0.05462  71.98127       16735.00       33709.29     1.17050     1.74247   177.64641     0.22042     0.00000   439.08084   439.08084
    22      721.83710      228.64520    -8     6    -6   0.06392   0.04135   0.00315  18.98052   0.04655  89.11354       28404.00       42947.29     1.18265     1.29640   178.81213     0.20873     0.00000   753.86035   753.86035
    14      129.37825       39.61745    -3     5    -7  -0.21551   0.22101   0.01004  13.62013   0.05948  99.85755       15367.00       27344.29     1.23169     1.45959     5.32879     0.19462     0.00000   258.91272   258.91272
    18      438.69974       20.97943    -6     6    -8   0.42808   0.29887   0.01951  17.13961   0.04649 102.16006       11012.00       21265.29     1.21799     1.49795   178.12447     0.21850     0.00000   722.16376   722.16376
    31     1012.68335      601.61230    -9     5    -3   0.01681  -0.16308   0.00421  21.60261   0.05069  68.95766         512.00        2353.28     1.21749     1.99441     5.07008     0.11280     0.00000   699.01929   699.01929
    16      753.58307      232.70216    -7     5    -5  -0.32237   0.21449   0.01571  16.22822   0.05456  88.87326        1041.00        3383.28     1.50780     1.74259   178.80016     0.11245     0.00000   475.07776   475.07776
    21      145.60570      355.19278    -3     7    -7  -0.05214  -0.03449   0.00242  18.13787   0.05245  81.32995        1462.00        3533.28     1.29001     1.46782   172.38815     0.10432     0.00000  1013.01184  1013.01184
    23      364.74802      259.68845    -5     7    -7  -0.04402  -0.08168   0.00331  18.42408   0.04893  86.88841        8507.00       22321.29     1.25660     1.89532   179.16788     0.18720     0.00000   145.90121   145.90121
    30      784.12665       52.59552   -10     6    -8  -0.03607  -0.12171   0.00402  21.07631   0.03835 100.15021        6336.00       10793.29     1.11898     1.33441   177.34824     0.15859     0.00000   262.01868   262.01868
    34      300.68546       93.02090    -6     8   -10  -0.07694  -0.01365   0.00310  21.53343   0.03834  97.34184         522.00        2764.24     1.23885     2.33164     5.66252     0.52932     0.00000   615.84363   615.84363
    25      919.92188      273.34323    -9     5    -5   0.10465  -0.10132   0.00519  19.04921   0.04744  86.62998        1020.00        4179.29     1.48579     1.83287   169.68364     0.14471     0.00000   784.10760   784.10760
    26       27.56500      162.42520    -3     7    -9   0.32047   0.02966   0.01080  18.66342   0.04597  92.52946         912.00        2736.28     1.12938     1.84196   176.74702     0.10608     0.00000   301.00153   301.00153
    24      822.86383       31.42406    -9     5    -7   0.18451  -0.16055   0.00821  18.39866   0.04356 101.32863       11641.00       19096.29     1.19956     1.28978   179.28824     0.18916     0.00000   365.11508   365.11508
    27      261.67816       78.66221    -5     7    -9  -0.07440  -0.05320   0.00327  18.84920   0.04354  98.10714        4465.00       13208.29     1.70288     1.74659   105.63984     0.19682     0.00000   920.15472   920.15472
    35      698.72174      226.32236    -9     7    -7   0.06699  -0.05942   0.00356  21.74973   0.04058  89.24895           0.00           0.00     0.00000     0.00000     0.00000     0.00000     0.00000     0.00000     0.00000
    28      454.66681       47.76638    -7     7    -9   0.00088   0.02536   0.00080  19.88950   0.04053 100.53997        4592.00       11670.29     1.42200     1.74446   166.78682     0.18529     0.00000    27.91356    27.91356
    33      971.54340       85.59412   -11     5    -7  -0.34502  -0.30023   0.01515  21.19146   0.03885  97.70630         739.00        2864.28     1.43743     1.55134    32.24527     0.12591     0.00000   971.97076   971.97076
latticeparameters=   0.54325   0.54484   0.54093  89.94916  90.19324  90.25741
dpsx, dpsy: 179.00000 168.38699
dd, xcent, ycent:      150.57201      540.60303      212.87601
pitch,yaw,roll:  -0.22645   0.61642   0.00000
dev1, dev2, pixdev:   0.01229   0.01205   0.25465
deviatoric strain in crystal reference u1 u2 u3 (*10^3)
   0.45223  -2.25393  -1.67992
  -2.25393   3.37922   0.43442
  -1.67992   0.43442  -3.81834
deviatoric strain in sample reference X Y Z (*10^3)
  -0.26082  -0.86339   0.49160
  -0.86339   4.62289   0.17122
   0.49160   0.17122  -4.34897
deviatoric principal strains (*10^3):   4.77184  -0.34316  -4.41557
deviatoric strain principal axes in sample reference:
  -0.16818   0.98571   0.00944
   0.97796   0.16564   0.12710
  -0.12372  -0.03061   0.99185
deviatoric stress in crystal reference u1 u2 u3 (MPa)
       46.82976     -358.41971     -267.14154
     -358.41971      344.50467       69.08171
     -267.14154       69.08171     -387.48712
deviatoric stress in sample reference X Y Z (MPa)
      -38.00078     -199.12016      -27.51195
     -199.12016      566.91754       20.93957
      -27.51195       20.93957     -525.06946
deviatoric principal stresses (MPa):      627.25616      -96.69713     -526.71173
deviatoric stress principal axes in sample reference:
       -0.28758        0.95745        0.02426
       -0.95633       -0.28844        0.04732
        0.05230       -0.00960        0.99859
total strain in sample reference X Y Z (*10^3)
   1.52805  -0.86339   0.49160
  -0.86339   6.41176   0.17122
   0.49160   0.17122  -2.56009
total principal strains (*10^3):   6.56071   1.44571  -2.62670
total strain principal axes in sample reference:
  -0.16818   0.98571   0.00944
   0.97796   0.16564   0.12710
  -0.12372  -0.03061   0.99185
total stress in crystal reference u1 u2 u3 (MPa)
      571.89923     -358.41971     -267.14154
     -358.41971      869.57416       69.08171
     -267.14154       69.08171      137.58234
total stress in sample reference X Y Z (MPa)
      487.06870     -199.12016      -27.51195
     -199.12016     1091.98706       20.93957
      -27.51195       20.93957        0.00000
total principal stresses (MPa):     1152.32556      428.37238       -1.64229
total stress principal axes in sample reference:
       -0.28758        0.95745        0.02426
       -0.95633       -0.28844        0.04732
        0.05231       -0.00960        0.99859
dilatational strain (*10^-3):        1.78887
hydrostatic stress (MPa):      526.35193
Von Mises stress (MPa):     1010.11462
equivalent strain (*10^-3):        5.31573
equivalent stress (MPa):     1010.11462
maximum resolved shear stress:       15.83888
coordinates of a, b, c in X, Y, Z
   0.44442  -0.20244   0.23851
   0.19254   0.50579   0.06497
  -0.24573   0.03226   0.48109
coordinates of a*, b*, c* in X, Y, Z
   1.50607  -0.67796   0.81473
   0.65608   1.70074   0.22107
  -0.83529   0.10643   1.64672
