\\vmware-host\Shared Folders\Desktop\SiHyperlaueFinal_shielded_results\results_00117.STR
Number of grains:       1
Grain no:       1   Grainlist file index:       1    Number of peaks:      32
no   x(exp)  y(exp)  h  k  l xdev  ydev  angdev  energy  dspace  twotheta  intens   integr  xwidth   ywidth  tilt  rfactor   pearson  xcentroid  ycentroid
     2      392.64133      872.01788    -2     4    -2  -0.29598  -0.11672   0.01724  12.44987   0.11103  53.29040       28218.00       88078.94     1.68019     2.03325   178.39165     0.21397     0.00000   746.68304   746.68304
     6      746.39197      951.30658    -3     3    -1  -0.38945   0.50458   0.02416  11.59465   0.12489  50.69663       33589.00       88093.94     1.62197     1.92409    77.39000     0.26084     0.00000   925.34875   925.34875
    14      991.68597      299.61893    -4     2    -2   0.13956  -0.10752   0.00620   8.25869   0.11083  85.26146       11805.00       27397.94     1.50074     1.68057    45.20966     0.21731     0.00000   859.20526   859.20526
     4      546.07599      225.16103    -3     3    -3   0.08386   0.18065   0.00710   8.45353   0.10445  89.18978       38515.00      137483.94     1.83016     1.87959    22.63873     0.22455     0.00000   546.38580   546.38580
     7     1026.48560      909.52985    -5     3    -1  -0.28241   0.23149   0.01385  14.49369   0.09196  55.43459       29961.00      146121.94     1.90938     2.93119   175.43604     0.31128     0.00000   426.88776   426.88776
     5      925.00873      683.00244    -6     4    -2   0.10620   0.03552   0.00495  16.08340   0.07267  64.06276       32170.00       80104.94     1.56594     1.83366   168.15556     0.22397     0.00000  1026.78137  1026.78137
     3      426.65280      666.12512    -3     5    -3   0.45874  -0.10327   0.02526  14.36189   0.08291  62.74950       24239.00       37826.94     1.23958     1.24465   165.60667     0.18407     0.00000   992.03326   992.03326
    12      648.66736      500.21188    -6     6    -4   0.17723   0.04252   0.00930  18.19297   0.05794  72.04388       30798.00       51630.94     1.21278     1.51369   179.30078     0.21338     0.00000   282.89722   282.89722
     8      668.66705      570.49927    -5     5    -3   0.12166  -0.02212   0.00649  15.64316   0.07079  68.09147       19226.00       40854.94     1.08953     1.87398   179.99690     0.19078     0.00000   648.99677   648.99677
    13      868.13403      257.27237    -5     3    -3   0.06573   0.19580   0.00656  10.82890   0.08279  87.48883       12331.00       21331.94     1.19513     1.43306     3.67579     0.17969     0.00000   258.93042   258.93042
     9      331.59662      270.37543    -4     6    -6  -0.48204  -0.01861   0.02178  15.68447   0.05784  86.20933       44997.00       67045.94     1.08483     1.53052   179.97336     0.19017     0.00000   669.00391   669.00391
    10      282.61621      288.49219    -3     5    -5  -0.39989  -0.02087   0.01775  12.97836   0.07064  85.09893       12836.00       38444.94     1.76939     1.91357    62.98004     0.20057     0.00000   868.35352   868.35352
    19      258.62347      619.60150    -3     7    -5  -0.01243  -0.35751   0.00940  19.09425   0.05963  65.97855       12258.00       24536.94     1.16875     1.70926   177.56815     0.21492     0.00000   439.07782   439.07782
    17      858.89893      567.49347    -7     5    -3   0.16385  -0.26542   0.01087  18.25007   0.05968  69.39264        8275.00       16899.94     1.23848     1.55315   177.49551     0.20779     0.00000   722.16541   722.16541
    31      475.06393      454.82187    -6     8    -6  -0.00545   0.09621   0.00293  21.97120   0.04659  74.55463        2445.00        5392.94     1.08295     1.47944     1.41016     0.15163     0.00000   454.97635   454.97635
    20      463.67014      498.15442    -5     7    -5   0.37610  -0.09460   0.01988  19.31757   0.05461  71.98043        1155.00        3250.94     1.34418     1.60367   172.10245     0.10543     0.00000  1012.98010  1012.98010
    21      721.86328      228.63536    -8     6    -6   0.05223   0.01199   0.00236  18.98127   0.04655  89.11606       20285.00       29522.94     1.15492     1.26547   178.17410     0.18477     0.00000   753.88751   753.88751
    15      129.37941       39.62958    -3     5    -7  -0.18747   0.26279   0.01021  13.62188   0.05947  99.85461         851.00        2865.94     1.49653     1.83688   174.60738     0.09504     0.00000   475.06897   475.06897
    18      438.69891       20.95278    -6     6    -8   0.42685   0.32738   0.01989  17.14108   0.04648 102.15994       15640.00       30383.94     1.21793     1.69076     5.99188     0.21437     0.00000   129.72810   129.72810
    30     1012.70642      601.55206    -9     5    -3   0.05366  -0.16708   0.00493  21.60234   0.05069  68.96145         459.00        2118.94     1.26202     1.89811     1.51245     0.09996     0.00000   699.04327   699.04327
    16      753.59570      232.68898    -7     5    -5  -0.31854   0.18290   0.01515  16.22876   0.05456  88.87612        7370.00       18063.94     1.08869     1.94516     0.03532     0.30034     0.00000   464.01563   464.01563
    22      145.61430      355.21912    -3     7    -7  -0.00197  -0.01232   0.00037  18.14063   0.05244  81.32694        6623.00       16847.94     1.24320     1.88906   179.65688     0.16951     0.00000   145.94379   145.94379
    23      364.76395      259.68542    -5     7    -7  -0.03600  -0.05581   0.00244  18.42620   0.04893  86.88695        8826.00       14892.94     1.19612     1.32895     2.40596     0.17623     0.00000   365.09335   365.09335
    29      784.16815       52.52622   -10     6    -8  -0.07014  -0.11752   0.00460  21.07681   0.03835 100.15417        4886.00        8439.94     1.12110     1.34165   176.96190     0.14242     0.00000   262.02383   262.02383
    33      300.68124       92.98364    -6     8   -10  -0.05814   0.05234   0.00287  21.53585   0.03833  97.34011         610.00        2434.22     1.36405     1.79847    16.01220     0.11308     0.00000   971.97046   971.97046
    24      919.92853      273.23645    -9     5    -5   0.13264  -0.06676   0.00569  19.04923   0.04744  86.63437         799.00        3672.94     1.65389     1.87944    81.72735     0.13449     0.00000   784.08875   784.08875
    26       27.57971      162.44308    -3     7    -9   0.36574   0.07663   0.01245  18.66615   0.04597  92.52592        3072.00       10448.94     1.64904     1.88598    16.30030     0.18563     0.00000   920.15845   920.15845
    25      822.88104       31.33902    -9     5    -7   0.17709  -0.15088   0.00783  18.39897   0.04356 101.33310         778.00        2489.94     1.14440     1.77664   175.42053     0.10572     0.00000   301.00034   301.00034
    27      261.68076       78.67070    -5     7    -9  -0.06000  -0.02717   0.00245  18.85140   0.04354  98.10509        3624.00        8983.94     1.37893     1.70619   169.73180     0.16657     0.00000    27.91756    27.91756
    35      698.73279      226.31984    -9     7    -7   0.06926  -0.09195   0.00428  21.75069   0.04057  89.25121           0.00           0.00     0.00000     0.00000     0.00000     0.00000     0.00000     0.00000     0.00000
    28      454.66641       47.76740    -7     7    -9   0.00111   0.02470   0.00078  19.89118   0.04052 100.53995        3379.00       10015.94     1.48807     1.89416    87.36001     0.19372     0.00000   823.11078   823.11078
    32      971.54199       85.52406   -11     5    -7  -0.31034  -0.33023   0.01475  21.19131   0.03885  97.71197         584.00        2511.94     1.43414     1.77902     8.16164     0.11358     0.00000   971.98126   971.98126
latticeparameters=   0.54329   0.54480   0.54092  89.94837  90.19179  90.25795
dpsx, dpsy: 179.00000 168.38699
dd, xcent, ycent:      150.57201      540.60303      212.87601
pitch,yaw,roll:  -0.22645   0.61642   0.00000
dev1, dev2, pixdev:   0.01228   0.01209   0.24976
deviatoric strain in crystal reference u1 u2 u3 (*10^3)
   0.54105  -2.25853  -1.66731
  -2.25853   3.30302   0.44132
  -1.66731   0.44132  -3.83113
deviatoric strain in sample reference X Y Z (*10^3)
  -0.22776  -0.91885   0.53285
  -0.91885   4.57292   0.14743
   0.53285   0.14743  -4.33222
deviatoric principal strains (*10^3):   4.74304  -0.32198  -4.40811
deviatoric strain principal axes in sample reference:
  -0.18121   0.98343   0.00534
   0.97443   0.17882   0.13605
  -0.13284  -0.02985   0.99069
deviatoric stress in crystal reference u1 u2 u3 (MPa)
       55.85275     -359.15125     -265.13602
     -359.15125      336.74542       70.17829
     -265.13602       70.17829     -388.79800
deviatoric stress in sample reference X Y Z (MPa)
      -35.42596     -204.94522      -22.89076
     -204.94522      561.98828       18.50970
      -22.89076       18.50970     -522.76215
deviatoric principal stresses (MPa):      626.05676      -98.34247     -523.91412
deviatoric stress principal axes in sample reference:
       -0.29655        0.95478        0.02129
       -0.95404       -0.29718        0.03849
        0.04308       -0.00890        0.99903
total strain in sample reference X Y Z (*10^3)
   1.55325  -0.91885   0.53285
  -0.91885   6.35393   0.14743
   0.53285   0.14743  -2.55121
total principal strains (*10^3):   6.52405   1.45903  -2.62710
total strain principal axes in sample reference:
  -0.18121   0.98343   0.00534
   0.97443   0.17882   0.13605
  -0.13284  -0.02985   0.99069
total stress in crystal reference u1 u2 u3 (MPa)
      578.61487     -359.15125     -265.13602
     -359.15125      859.50757       70.17829
     -265.13602       70.17829      133.96413
total stress in sample reference X Y Z (MPa)
      487.33615     -204.94522      -22.89076
     -204.94522     1084.75037       18.50970
      -22.89076       18.50970        0.00000
total principal stresses (MPa):     1148.81897      424.41965       -1.15199
total stress principal axes in sample reference:
       -0.29655        0.95478        0.02129
       -0.95404       -0.29718        0.03849
        0.04308       -0.00890        0.99903
dilatational strain (*10^-3):        1.78101
hydrostatic stress (MPa):      524.02887
Von Mises stress (MPa):     1007.04980
equivalent strain (*10^-3):        5.29349
equivalent stress (MPa):     1007.04980
maximum resolved shear stress:       22.29894
coordinates of a, b, c in X, Y, Z
   0.44452  -0.20241   0.23859
   0.19246   0.50583   0.06496
  -0.24576   0.03225   0.48112
coordinates of a*, b*, c* in X, Y, Z
   1.50616  -0.67771   0.81479
   0.65595   1.70111   0.22105
  -0.83547   0.10638   1.64684
