\\vmware-host\Shared Folders\Desktop\SiHyperlaueFinal_shielded_results\results_00114.STR
Number of grains:       1
Grain no:       1   Grainlist file index:       1    Number of peaks:      32
no   x(exp)  y(exp)  h  k  l xdev  ydev  angdev  energy  dspace  twotheta  intens   integr  xwidth   ywidth  tilt  rfactor   pearson  xcentroid  ycentroid
     2      392.64102      872.00739    -2     4    -2  -0.30122  -0.12346   0.01756  12.44984   0.11103  53.29115       29280.00       92074.92     1.68267     2.03641   178.55582     0.21194     0.00000   746.68469   746.68469
     5      746.39075      951.28931    -3     3    -1  -0.39152   0.51514   0.02435  11.59465   0.12489  50.69687       32996.00       82551.92     1.59078     1.85780     0.00000     0.22684     0.00000  1026.77686  1026.77686
    14      991.68579      299.61923    -4     2    -2   0.14693  -0.09436   0.00626   8.25871   0.11083  85.26071       11905.00       27646.92     1.50013     1.68389    51.32240     0.21599     0.00000   859.20142   859.20142
     4      546.06940      225.15488    -3     3    -3   0.09103   0.18846   0.00750   8.45354   0.10445  89.18967       39510.00      138803.92     1.82467     1.87827    17.39961     0.22528     0.00000   546.38007   546.38007
     7     1026.48792      909.55029    -5     3    -1  -0.28361   0.22334   0.01383  14.49381   0.09196  55.43413       30451.00      147823.92     1.90712     2.92783   175.37161     0.31146     0.00000   426.88461   426.88461
     6      925.01282      683.00824    -6     4    -2   0.10323   0.03797   0.00482  16.08349   0.07267  64.06237       33542.00       88879.92     1.69632     1.86174     2.21048     0.25871     0.00000   925.34814   925.34814
     3      426.65192      666.12408    -3     5    -3   0.45526  -0.11103   0.02508  14.36190   0.08291  62.74996       24489.00       38138.92     1.24099     1.24175   138.19591     0.18376     0.00000   992.03497   992.03497
    12      648.66724      500.21158    -6     6    -4   0.17611   0.04294   0.00924  18.19302   0.05794  72.04387       31134.00       52175.92     1.21311     1.51728   179.28772     0.21183     0.00000   282.89343   282.89343
     8      668.66699      570.49890    -5     5    -3   0.12008  -0.02233   0.00641  15.64320   0.07079  68.09149       19325.00       41162.92     1.08963     1.87328     0.04328     0.19115     0.00000   649.00659   649.00659
    13      868.12445      257.27313    -5     3    -3   0.08044   0.20425   0.00706  10.82892   0.08279  87.48828       12415.00       21490.92     1.19188     1.44935     3.31012     0.17719     0.00000   258.92221   258.92221
     9      331.59717      270.37302    -4     6    -6  -0.48442  -0.01786   0.02188  15.68451   0.05784  86.20943       45596.00       68008.92     1.08472     1.53119     0.00734     0.19089     0.00000   668.99854   668.99854
    10      282.61633      288.49060    -3     5    -5  -0.40232  -0.02162   0.01786  12.97840   0.07064  85.09908       13035.00       38399.92     1.67805     2.00087   134.33775     0.19611     0.00000   868.34784   868.34784
    19      258.62543      619.59827    -3     7    -5  -0.01922  -0.36383   0.00962  19.09430   0.05963  65.97908       12436.00       24869.92     1.17207     1.70309   177.59706     0.21484     0.00000   439.07999   439.07999
    17      858.90094      567.49731    -7     5    -3   0.16292  -0.26285   0.01078  18.25015   0.05968  69.39230        8381.00       16762.92     1.22241     1.54848   178.08455     0.20464     0.00000   722.15265   722.15265
    31      475.03244      454.82370    -6     8    -6   0.02353   0.09160   0.00306  21.97126   0.04659  74.55480        2560.00        5632.92     1.07883     1.49599     1.01671     0.15576     0.00000   455.02557   455.02557
    20      463.67078      498.15091    -5     7    -5   0.37251  -0.09492   0.01969  19.31762   0.05461  71.98066        1156.00        3175.92     1.32774     1.59846   172.26299     0.10348     0.00000  1013.01776  1013.01776
    21      721.86224      228.63959    -8     6    -6   0.05619   0.01300   0.00254  18.98128   0.04655  89.11572       20556.00       29627.92     1.15325     1.25770   179.20422     0.18269     0.00000   753.88831   753.88831
    15      129.37907       39.62842    -3     5    -7  -0.18797   0.26280   0.01022  13.62189   0.05947  99.85467         889.00        3019.92     1.46770     1.77092   179.01244     0.10669     0.00000   475.05154   475.05154
    18      438.70120       20.94814    -6     6    -8   0.42664   0.33370   0.01998  17.14105   0.04648 102.15984       15680.00       30520.92     1.21895     1.69143     5.94283     0.21508     0.00000   129.72768   129.72768
    30     1012.70233      601.54938    -9     5    -3   0.06140  -0.15105   0.00477  21.60248   0.05069  68.96082         481.00        2164.92     1.27721     2.03166   173.88911     0.10222     0.00000   699.02448   699.02448
    16      753.59851      232.68886    -7     5    -5  -0.31797   0.18903   0.01520  16.22877   0.05456  88.87574        7515.00       18401.92     1.09018     1.94500     0.00347     0.30038     0.00000   464.01340   464.01340
    22      145.61842      355.21719    -3     7    -7  -0.00958  -0.01472   0.00060  18.14070   0.05244  81.32721        6524.00       16709.92     1.23233     1.89411   179.16145     0.17023     0.00000   145.94730   145.94730
    23      364.76465      259.68692    -5     7    -7  -0.03819  -0.05849   0.00257  18.42624   0.04893  86.88702        8590.00       14532.92     1.19814     1.32879     0.01106     0.17623     0.00000   365.09683   365.09683
    29      784.16174       52.52274   -10     6    -8  -0.05690  -0.10633   0.00401  21.07677   0.03835 100.15368        4804.00        8457.92     1.12228     1.34106   176.80074     0.14838     0.00000   262.02197   262.02197
    32      300.68066       92.96745    -6     8   -10  -0.05772   0.06833   0.00317  21.53586   0.03833  97.34012         584.00        2342.92     1.37665     1.90971    10.55748     0.10338     0.00000   971.97882   971.97882
    24      919.95941      273.25278    -9     5    -5   0.10774  -0.07221   0.00484  19.04926   0.04744  86.63373         771.00        3557.92     1.63641     1.92290    76.92824     0.13598     0.00000   784.07880   784.07880
    26       27.57602      162.44514    -3     7    -9   0.36692   0.07197   0.01247  18.66621   0.04597  92.52606        3081.00       10370.92     1.72064     1.85460    59.09407     0.17656     0.00000   920.14679   920.14679
    25      822.88708       31.33855    -9     5    -7   0.17907  -0.14166   0.00775  18.39892   0.04356 101.33255         800.00        2401.92     1.13888     1.74908   175.97765     0.10004     0.00000   301.01416   301.01416
    27      261.68011       78.66370    -5     7    -9  -0.05966  -0.02060   0.00238  18.85141   0.04354  98.10512        3646.00        8981.92     1.38694     1.69045   169.34207     0.16526     0.00000    27.92226    27.92226
    34      698.74365      226.32834    -9     7    -7   0.06100  -0.09575   0.00411  21.75070   0.04057  89.25091         522.00        2764.24     1.23885     2.33164     5.66252     0.52932     0.00000   615.84363   615.84363
    28      454.66644       47.76474    -7     7    -9   0.00297   0.02909   0.00092  19.89116   0.04052 100.53984        3485.00       10337.92     1.50357     1.90088    63.43426     0.19500     0.00000   823.14691   823.14691
    33      971.56122       85.60845   -11     5    -7  -0.31916  -0.40162   0.01645  21.19130   0.03885  97.71119         610.00        2434.22     1.36405     1.79847    16.01220     0.11308     0.00000   971.97046   971.97046
latticeparameters=   0.54329   0.54479   0.54093  89.94704  90.19053  90.25814
dpsx, dpsy: 179.00000 168.38699
dd, xcent, ycent:      150.57201      540.60303      212.87601
pitch,yaw,roll:  -0.22645   0.61642   0.00000
dev1, dev2, pixdev:   0.01234   0.01218   0.25197
deviatoric strain in crystal reference u1 u2 u3 (*10^3)
   0.54180  -2.26015  -1.65638
  -2.26015   3.29019   0.45298
  -1.65638   0.45298  -3.81913
deviatoric strain in sample reference X Y Z (*10^3)
  -0.23922  -0.92692   0.53618
  -0.92692   4.56395   0.15218
   0.53618   0.15218  -4.31187
deviatoric principal strains (*10^3):   4.73691  -0.33446  -4.38959
deviatoric strain principal axes in sample reference:
  -0.18252   0.98318   0.00572
   0.97391   0.18000   0.13818
  -0.13482  -0.03079   0.99039
deviatoric stress in crystal reference u1 u2 u3 (MPa)
       55.92362     -359.40857     -263.39734
     -359.40857      335.43402       72.03276
     -263.39734       72.03276     -387.58325
deviatoric stress in sample reference X Y Z (MPa)
      -37.33056     -205.95531      -22.06673
     -205.95531      561.17841       19.32235
      -22.06673       19.32235     -520.07349
deviatoric principal stresses (MPa):      625.74756     -100.79415     -521.17902
deviatoric stress principal axes in sample reference:
       -0.29722        0.95456        0.02182
       -0.95392       -0.29785        0.03648
        0.04132       -0.00997        0.99910
total strain in sample reference X Y Z (*10^3)
   1.53263  -0.92692   0.53618
  -0.92692   6.33580   0.15218
   0.53618   0.15218  -2.54002
total principal strains (*10^3):   6.50876   1.43739  -2.61774
total strain principal axes in sample reference:
  -0.18252   0.98318   0.00572
   0.97391   0.18000   0.13818
  -0.13482  -0.03079   0.99039
total stress in crystal reference u1 u2 u3 (MPa)
      575.99707     -359.40857     -263.39734
     -359.40857      855.50751       72.03276
     -263.39734       72.03276      132.49022
total stress in sample reference X Y Z (MPa)
      482.74292     -205.95531      -22.06673
     -205.95531     1081.25195       19.32235
      -22.06673       19.32235        0.00000
total principal stresses (MPa):     1145.82104      419.27930       -1.10551
total stress principal axes in sample reference:
       -0.29722        0.95456        0.02182
       -0.95392       -0.29785        0.03648
        0.04132       -0.00997        0.99910
dilatational strain (*10^-3):        1.77185
hydrostatic stress (MPa):      521.33160
Von Mises stress (MPa):     1004.99420
equivalent strain (*10^-3):        5.28007
equivalent stress (MPa):     1004.99420
maximum resolved shear stress:       22.90622
coordinates of a, b, c in X, Y, Z
   0.44452  -0.20241   0.23859
   0.19246   0.50583   0.06496
  -0.24575   0.03226   0.48113
coordinates of a*, b*, c* in X, Y, Z
   1.50618  -0.67770   0.81476
   0.65598   1.70113   0.22101
  -0.83545   0.10640   1.64682
