\\vmware-host\Shared Folders\Desktop\SiHyperlaueFinal_shielded_results\results_00090.STR
Number of grains:       1
Grain no:       1   Grainlist file index:       1    Number of peaks:      33
no   x(exp)  y(exp)  h  k  l xdev  ydev  angdev  energy  dspace  twotheta  intens   integr  xwidth   ywidth  tilt  rfactor   pearson  xcentroid  ycentroid
     2      392.63531      871.97424    -2     4    -2  -0.31746  -0.10490   0.01840  12.44738   0.11105  53.29185       41706.00      139442.94     1.73325     2.05470   178.61594     0.21041     0.00000   746.65942   746.65942
     5      746.35706      951.25537    -3     3    -1  -0.36050   0.53073   0.02291  11.59319   0.12490  50.69754       40129.00      102065.95     1.58939     1.91360   101.55098     0.18435     0.00000  1026.77087  1026.77087
    13      991.68018      299.61340    -4     2    -2   0.12765  -0.06941   0.00529   8.25844   0.11084  85.25954       38601.00       66063.95     1.21989     1.55734   179.49416     0.21807     0.00000   282.88626   282.88626
     3      546.06287      225.13753    -3     3    -3   0.10263   0.18654   0.00777   8.45249   0.10446  89.19093       29484.00       45827.95     1.24736     1.24747    60.84175     0.18603     0.00000   992.02429   992.02429
     7     1026.45190      909.49274    -5     3    -1  -0.27442   0.25359   0.01371  14.49283   0.09197  55.43482         437.00        1470.94     1.20448     1.55356     2.31717     0.07183     0.00000    62.02603    62.02603
     6      925.00574      683.01239    -6     4    -2   0.09641   0.02411   0.00448  16.08234   0.07268  64.06270       39305.00      103756.95     1.65693     1.89920    68.16513     0.24793     0.00000   925.35156   925.35156
    36       61.83114      407.69016    -1     3    -3   0.22483   0.29699   0.01246   7.85950   0.12447  78.64913           0.00           0.00     0.00000     0.00000     0.00000     0.00000     0.00000     0.00000     0.00000
     4      426.63800      666.11566    -3     5    -3   0.45507  -0.12905   0.02511  14.35921   0.08292  62.75136       55482.00      188987.94     1.82041     1.87170    20.52294     0.22904     0.00000   546.38220   546.38220
    14      648.66705      500.21375    -6     6    -4   0.17782   0.02415   0.00928  18.19074   0.05795  72.04485       12924.00       22914.95     1.20811     1.47268     3.88119     0.18387     0.00000   258.91949   258.91949
     8      668.66730      570.49487    -5     5    -3   0.12049  -0.03480   0.00648  15.64124   0.07079  68.09241       37609.00      181145.94     1.90504     2.86391   175.44225     0.30713     0.00000   426.85577   426.85577
    11      868.12244      257.27933    -5     3    -3   0.07491   0.21072   0.00714  10.82834   0.08280  87.48749       19676.00       57360.95     1.78528     1.89134   155.95557     0.21333     0.00000   868.37305   868.37305
    10      331.59369      270.35382    -4     6    -6  -0.49360  -0.03740   0.02233  15.68181   0.05785  86.21189       52510.00       78830.95     1.08424     1.54262     0.08941     0.19479     0.00000   669.00562   669.00562
     9      282.61383      288.47046    -3     5    -5  -0.41942  -0.04292   0.01866  12.97604   0.07065  85.10168       21299.00       45002.95     1.09021     1.87322   179.98521     0.19126     0.00000   649.00665   649.00665
    19      258.61880      619.59155    -3     7    -5  -0.04839  -0.38503   0.01053  19.09029   0.05964  65.98077       19272.00       37402.95     1.23145     1.68720     6.48032     0.22519     0.00000   129.72183   129.72183
    17      858.88525      567.50378    -7     5    -3   0.17137  -0.27494   0.01131  18.24873   0.05968  69.39255        8014.00       19750.95     1.09059     1.94663     0.01211     0.30203     0.00000   464.02466   464.02466
    31      475.05377      454.82126    -6     8    -6  -0.00274   0.06551   0.00199  21.96766   0.04659  74.55653         492.00        1985.94     1.27822     2.04251     4.77899     0.08441     0.00000   699.04926   699.04926
    20      463.67026      498.14752    -5     7    -5   0.36616  -0.12045   0.01946  19.31435   0.05462  71.98237       13483.00       27421.95     1.17199     1.73068   177.66640     0.21805     0.00000   439.09155   439.09155
    22      721.87018      228.63625    -8     6    -6   0.05227   0.01600   0.00239  18.97970   0.04655  89.11575       22872.00       33222.95     1.15698     1.26890   179.09061     0.18874     0.00000   753.88245   753.88245
    15      129.38203       39.62295    -3     5    -7  -0.21842   0.21279   0.00996  13.61959   0.05948  99.85771       13371.00       30453.95     1.49471     1.64828    27.68861     0.22244     0.00000   859.19922   859.19922
    18      438.70087       20.97005    -6     6    -8   0.43486   0.28752   0.01959  17.13893   0.04649 102.16136        8878.00       18082.95     1.23226     1.55894   179.42633     0.21067     0.00000   722.15710   722.15710
    30     1012.71069      601.55414    -9     5    -3   0.02671  -0.15976   0.00425  21.60143   0.05069  68.96076        5237.00        9193.95     1.11595     1.35268   177.03969     0.15275     0.00000   262.01971   262.01971
    16      753.59393      232.69046    -7     5    -5  -0.31103   0.19022   0.01494  16.22753   0.05456  88.87557         882.00        3059.95     1.49094     1.80588     0.77364     0.10327     0.00000   475.07971   475.07971
    21      145.61000      355.18872    -3     7    -7  -0.04589  -0.02956   0.00212  18.13703   0.05245  81.32987        1233.00        3328.95     1.33286     1.55116   171.78860     0.10663     0.00000  1013.02826  1013.02826
    23      364.76321      259.68600    -5     7    -7  -0.04525  -0.09398   0.00367  18.42320   0.04893  86.88935        7001.00       18497.95     1.25265     1.89858   179.27943     0.17622     0.00000   145.92378   145.92378
    29      784.17706       52.52028   -10     6    -8  -0.07012  -0.08505   0.00385  21.07558   0.03836 100.15253        3806.00       11043.95     1.49839     1.87491    72.48442     0.19641     0.00000   823.13702   823.13702
    32      300.68536       92.94726    -6     8   -10  -0.06978   0.04749   0.00319  21.53251   0.03834  97.34264        2694.00        5880.94     1.08124     1.49159   179.20944     0.15665     0.00000   454.98996   454.98996
    25      919.94647      273.25903    -9     5    -5   0.10670  -0.06245   0.00468  19.04843   0.04744  86.63274         841.00        3936.95     1.64212     1.90415    81.23492     0.14244     0.00000   784.09515   784.09515
    26       27.57152      162.43324    -3     7    -9   0.31607   0.02727   0.01065  18.66266   0.04597  92.52914         903.00        2634.95     1.13138     1.70279   179.18793     0.10539     0.00000   301.01971   301.01971
    24      822.87292       31.36878    -9     5    -7   0.19165  -0.14618   0.00821  18.39805   0.04356 101.33102        9406.00       15814.95     1.20233     1.32694     1.01734     0.17888     0.00000   365.10535   365.10535
    27      261.67896       78.66220    -5     7    -9  -0.06962  -0.06355   0.00328  18.84841   0.04354  98.10779        3305.00       11015.95     1.68222     1.87334    20.37497     0.18470     0.00000   920.13428   920.13428
    35      698.73914      226.36098    -9     7    -7   0.07047  -0.13112   0.00526  21.74878   0.04058  89.25109           0.00           0.00     0.00000     0.00000     0.00000     0.00000     0.00000     0.00000     0.00000
    28      454.66605       47.75906    -7     7    -9   0.01090   0.01133   0.00057  19.88870   0.04053 100.54133        3869.00        9832.95     1.39436     1.71929   169.04927     0.17706     0.00000    27.92110    27.92110
    33      971.54004       85.52958   -11     5    -7  -0.32083  -0.28476   0.01419  21.19077   0.03885  97.70907         662.00        2504.95     1.42444     1.65324     0.00000     0.10885     0.00000   971.98590   971.98590
latticeparameters=   0.54323   0.54486   0.54093  89.95085  90.19439  90.25771
dpsx, dpsy: 179.00000 168.38699
dd, xcent, ycent:      150.57201      540.60303      212.87601
pitch,yaw,roll:  -0.22645   0.61642   0.00000
dev1, dev2, pixdev:   0.01225   0.01207   0.25429
deviatoric strain in crystal reference u1 u2 u3 (*10^3)
   0.42550  -2.25660  -1.68989
  -2.25660   3.41140   0.41972
  -1.68989   0.41972  -3.82367
deviatoric strain in sample reference X Y Z (*10^3)
  -0.26513  -0.84255   0.47584
  -0.84255   4.64744   0.16878
   0.47584   0.16878  -4.36908
deviatoric principal strains (*10^3):   4.78878  -0.34424  -4.43131
deviatoric strain principal axes in sample reference:
  -0.16355   0.98649   0.00968
   0.97929   0.16115   0.12254
  -0.11932  -0.02952   0.99242
deviatoric stress in crystal reference u1 u2 u3 (MPa)
       44.11883     -358.84531     -268.72638
     -358.84531      347.78500       66.74397
     -268.72638       66.74397     -388.02200
deviatoric stress in sample reference X Y Z (MPa)
      -37.81840     -196.88715      -29.67590
     -196.88715      569.45770       20.10490
      -29.67590       20.10490     -527.75751
deviatoric principal stresses (MPa):      628.36847      -94.87212     -529.61450
deviatoric stress principal axes in sample reference:
       -0.28432        0.95843        0.02397
       -0.95703       -0.28522        0.05236
        0.05702       -0.00805        0.99834
total strain in sample reference X Y Z (*10^3)
   1.53289  -0.84255   0.47584
  -0.84255   6.44547   0.16878
   0.47584   0.16878  -2.57105
total principal strains (*10^3):   6.58681   1.45379  -2.63329
total strain principal axes in sample reference:
  -0.16355   0.98649   0.00968
   0.97929   0.16115   0.12254
  -0.11932  -0.02952   0.99242
total stress in crystal reference u1 u2 u3 (MPa)
      571.87634     -358.84531     -268.72638
     -358.84531      875.54248       66.74397
     -268.72638       66.74397      139.73549
total stress in sample reference X Y Z (MPa)
      489.93909     -196.88715      -29.67590
     -196.88715     1097.21521       20.10490
      -29.67590       20.10490        0.00000
total principal stresses (MPa):     1156.12598      432.88535       -1.85699
total stress principal axes in sample reference:
       -0.28432        0.95843        0.02397
       -0.95703       -0.28522        0.05236
        0.05702       -0.00805        0.99834
dilatational strain (*10^-3):        1.79803
hydrostatic stress (MPa):      529.05145
Von Mises stress (MPa):     1013.16394
equivalent strain (*10^-3):        5.33463
equivalent stress (MPa):     1013.16394
maximum resolved shear stress:       13.09375
coordinates of a, b, c in X, Y, Z
   0.44439  -0.20242   0.23852
   0.19252   0.50580   0.06498
  -0.24575   0.03224   0.48106
coordinates of a*, b*, c* in X, Y, Z
   1.50605  -0.67791   0.81482
   0.65597   1.70065   0.22113
  -0.83533   0.10641   1.64665
