\\vmware-host\Shared Folders\Desktop\SiHyperlaueFinal_shielded_results\results_00052.STR
Number of grains:       1
Grain no:       1   Grainlist file index:       1    Number of peaks:      33
no   x(exp)  y(exp)  h  k  l xdev  ydev  angdev  energy  dspace  twotheta  intens   integr  xwidth   ywidth  tilt  rfactor   pearson  xcentroid  ycentroid
     2      392.62521      871.98218    -2     4    -2  -0.32586  -0.11679   0.01893  12.44781   0.11105  53.29210       59745.00      205747.27     1.79027     2.06437   178.21461     0.21242     0.00000   746.62280   746.62280
     5      746.30865      951.28546    -3     3    -1  -0.33462   0.52346   0.02155  11.59363   0.12490  50.69650       49043.00      127484.27     1.61959     1.93428    99.73306     0.18854     0.00000  1026.74841  1026.74841
    13      991.67096      299.61649    -4     2    -2   0.11472  -0.04380   0.00456   8.25871   0.11084  85.25782       48608.00       84693.27     1.23256     1.57066   179.24678     0.22765     0.00000   282.87915   282.87915
     3      546.03461      225.14610    -3     3    -3   0.11643   0.19397   0.00836   8.45287   0.10446  89.18988       38812.00       58863.26     1.23872     1.23903    77.40342     0.18477     0.00000   992.00604   992.00604
     6     1026.42773      909.52216    -5     3    -1  -0.27346   0.26586   0.01378  14.49342   0.09197  55.43289       46203.00      122571.27     1.60706     1.95045   149.59691     0.24881     0.00000   925.33984   925.33984
     7      924.98694      683.03918    -6     4    -2   0.09272   0.02548   0.00431  16.08292   0.07268  64.06111        1024.00        2207.26     1.14772     1.47416     2.60001     0.07518     0.00000    62.02461    62.02461
    36       61.82712      407.68005    -1     3    -3   0.22694   0.30012   0.01258   7.85988   0.12446  78.64952           0.00           0.00     0.00000     0.00000     0.00000     0.00000     0.00000     0.00000     0.00000
     4      426.61948      666.12158    -3     5    -3   0.45621  -0.13199   0.02518  14.35978   0.08292  62.75126       79498.00      263115.25     1.79715     1.87289     6.79209     0.23144     0.00000   546.37671   546.37671
    14      648.66724      500.24167    -6     6    -4   0.15835   0.01100   0.00825  18.19145   0.05795  72.04393       14574.00       25741.26     1.21849     1.45892     4.39436     0.19038     0.00000   258.91830   258.91830
     8      668.66693      570.50995    -5     5    -3   0.10082  -0.03472   0.00545  15.64184   0.07079  68.09149       48062.00      222102.27     1.90178     2.76981   175.08595     0.30639     0.00000   426.82605   426.82605
     9      868.08093      257.31384    -5     3    -3   0.09604   0.20090   0.00730  10.82872   0.08280  87.48595       25018.00       51011.26     1.08932     1.85800     0.05165     0.19577     0.00000   649.00305   649.00305
    11      331.58856      270.35501    -4     6    -6  -0.49790  -0.02991   0.02251  15.68258   0.05785  86.21134       32069.00       87284.27     1.71538     1.90194   148.25273     0.22338     0.00000   868.38593   868.38593
    10      282.60846      288.46387    -3     5    -5  -0.42222  -0.02981   0.01875  12.97669   0.07064  85.10128       62740.00       92819.27     1.08470     1.51787     0.07598     0.19326     0.00000   669.00085   669.00085
    19      258.61462      619.59192    -3     7    -5  -0.05712  -0.39003   0.01080  19.09109   0.05964  65.98109       23649.00       46489.26     1.24057     1.69499     6.86168     0.23722     0.00000   129.69257   129.69257
    17      858.86841      567.52887    -7     5    -3   0.16649  -0.27668   0.01117  18.24937   0.05968  69.39113        8833.00       21873.26     1.08645     1.94950   179.97050     0.30062     0.00000   464.00925   464.00925
    30      474.99734      454.84570    -6     8    -6   0.03768   0.05015   0.00250  21.96861   0.04659  74.55599        5726.00        9872.26     1.11540     1.35027   178.93814     0.15255     0.00000   262.01785   262.01785
    20      463.66888      498.16171    -5     7    -5   0.35123  -0.12677   0.01873  19.31517   0.05462  71.98192       15170.00       30984.26     1.17166     1.73702   177.75755     0.22342     0.00000   439.07623   439.07623
    22      721.84601      228.64432    -8     6    -6   0.05851   0.02861   0.00277  18.98044   0.04655  89.11441       26407.00       39178.26     1.16525     1.28606   179.03873     0.20057     0.00000   753.88245   753.88245
    15      129.37601       39.61912    -3     5    -7  -0.20770   0.22724   0.00996  13.62031   0.05948  99.85713       15873.00       34468.26     1.46145     1.60065    50.68694     0.22790     0.00000   859.19678   859.19678
    18      438.70029       20.97618    -6     6    -8   0.42759   0.30100   0.01952  17.13976   0.04649 102.16013       10316.00       20127.26     1.21876     1.51068   179.20087     0.21530     0.00000   722.15173   722.15173
    31     1012.69727      601.58984    -9     5    -3   0.01730  -0.16436   0.00424  21.60217   0.05069  68.95898         522.00        2299.26     1.22159     1.93900     4.65262     0.10761     0.00000   699.01324   699.01324
    16      753.58698      232.69414    -7     5    -5  -0.32256   0.20805   0.01563  16.22814   0.05456  88.87418        1010.00        3515.26     1.56324     1.75751   170.50206     0.11780     0.00000   475.08176   475.08176
    21      145.61053      355.18674    -3     7    -7  -0.05081  -0.02860   0.00230  18.13793   0.05245  81.32994        1321.00        3497.26     1.31203     1.52711   171.14502     0.10979     0.00000  1013.00226  1013.00226
    23      364.74576      259.68671    -5     7    -7  -0.03808  -0.08466   0.00323  18.42410   0.04893  86.88871        7888.00       20759.26     1.25061     1.90329   179.25427     0.17911     0.00000   145.91560   145.91560
    29      784.13568       52.57312   -10     6    -8  -0.04616  -0.11109   0.00390  21.07637   0.03835 100.15093        4290.00       12422.26     1.48246     1.74216    31.78137     0.24206     0.00000   823.13086   823.13086
    33      300.68130       93.02389    -6     8   -10  -0.07021  -0.01562   0.00285  21.53362   0.03834  97.34179         710.00        2771.26     1.38953     1.65306    26.95113     0.12585     0.00000   971.98553   971.98553
    25      919.91327      273.30066    -9     5    -5   0.11875  -0.07780   0.00531  19.04906   0.04744  86.63113         948.00        4138.26     1.50187     1.83462   166.68221     0.15319     0.00000   784.07074   784.07074
    26       27.57423      162.43462    -3     7    -9   0.31969   0.02755   0.01077  18.66364   0.04597  92.52906         867.00        2710.26     1.11915     1.83393   179.34222     0.10604     0.00000   300.99332   300.99332
    24      822.83795       31.41860    -9     5    -7   0.20856  -0.16745   0.00906  18.39871   0.04356 101.32937       10962.00       17941.26     1.20605     1.28418     0.42696     0.18221     0.00000   365.08997   365.08997
    27      261.67877       78.66358    -5     7    -9  -0.07199  -0.05196   0.00317  18.84939   0.04354  98.10699        3954.00       12345.26     1.63407     1.83792    14.77862     0.19335     0.00000   920.13104   920.13104
    35      698.72992      226.32137    -9     7    -7   0.06218  -0.07143   0.00361  21.74964   0.04058  89.24978           0.00           0.00     0.00000     0.00000     0.00000     0.00000     0.00000     0.00000     0.00000
    28      454.66660       47.76640    -7     7    -9   0.00144   0.02299   0.00072  19.88965   0.04053 100.54012        4282.00       10602.26     1.39030     1.70416   168.13371     0.17948     0.00000    27.90667    27.90667
    32      971.54797       85.59368   -11     5    -7  -0.35004  -0.31731   0.01560  21.19145   0.03885  97.70731        2914.00        6270.26     1.08258     1.49810   178.96983     0.16267     0.00000   454.97723   454.97723
latticeparameters=   0.54324   0.54485   0.54092  89.94819  90.19438  90.25821
dpsx, dpsy: 179.00000 168.38699
dd, xcent, ycent:      150.57201      540.60303      212.87601
pitch,yaw,roll:  -0.22645   0.61642   0.00000
dev1, dev2, pixdev:   0.01228   0.01207   0.25473
deviatoric strain in crystal reference u1 u2 u3 (*10^3)
   0.44790  -2.26101  -1.68974
  -2.26101   3.40411   0.44276
  -1.68974   0.44276  -3.83874
deviatoric strain in sample reference X Y Z (*10^3)
  -0.26424  -0.86327   0.49451
  -0.86327   4.64973   0.18136
   0.49451   0.18136  -4.37221
deviatoric principal strains (*10^3):   4.79797  -0.34490  -4.43980
deviatoric strain principal axes in sample reference:
  -0.16710   0.98588   0.01049
   0.97811   0.16443   0.12751
  -0.12398  -0.03156   0.99178
deviatoric stress in crystal reference u1 u2 u3 (MPa)
       46.40008     -359.54568     -268.70294
     -359.54568      347.04620       70.40734
     -268.70294       70.40734     -389.55182
deviatoric stress in sample reference X Y Z (MPa)
      -38.30913     -199.67232      -27.49573
     -199.67232      570.00806       22.39809
      -27.49573       22.39809     -527.80450
deviatoric principal stresses (MPa):      630.43542      -97.07362     -529.46735
deviatoric stress principal axes in sample reference:
       -0.28696        0.95761        0.02533
       -0.95656       -0.28787        0.04609
        0.05143       -0.01100        0.99862
total strain in sample reference X Y Z (*10^3)
   1.53394  -0.86327   0.49451
  -0.86327   6.44792   0.18136
   0.49451   0.18136  -2.57403
total principal strains (*10^3):   6.59616   1.45329  -2.64162
total strain principal axes in sample reference:
  -0.16710   0.98588   0.01049
   0.97811   0.16443   0.12751
  -0.12398  -0.03156   0.99178
total stress in crystal reference u1 u2 u3 (MPa)
      574.20459     -359.54568     -268.70294
     -359.54568      874.85065       70.40734
     -268.70294       70.40734      138.25266
total stress in sample reference X Y Z (MPa)
      489.49536     -199.67232      -27.49573
     -199.67232     1097.81250       22.39809
      -27.49573       22.39809        0.00000
total principal stresses (MPa):     1158.23987      430.73090       -1.66287
total stress principal axes in sample reference:
       -0.28696        0.95761        0.02533
       -0.95656       -0.28787        0.04609
        0.05143       -0.01100        0.99862
dilatational strain (*10^-3):        1.79819
hydrostatic stress (MPa):      529.10260
Von Mises stress (MPa):     1015.28522
equivalent strain (*10^-3):        5.34486
equivalent stress (MPa):     1015.28522
maximum resolved shear stress:       15.80902
coordinates of a, b, c in X, Y, Z
   0.44442  -0.20244   0.23851
   0.19252   0.50581   0.06499
  -0.24573   0.03225   0.48107
coordinates of a*, b*, c* in X, Y, Z
   1.50607  -0.67793   0.81476
   0.65604   1.70069   0.22110
  -0.83532   0.10636   1.64674
