\\vmware-host\Shared Folders\Desktop\SiHyperlaueFinal_shielded_results\results_00143.STR
Number of grains:       1
Grain no:       1   Grainlist file index:       1    Number of peaks:      33
no   x(exp)  y(exp)  h  k  l xdev  ydev  angdev  energy  dspace  twotheta  intens   integr  xwidth   ywidth  tilt  rfactor   pearson  xcentroid  ycentroid
     4      392.64142      872.04156    -2     4    -2  -0.44268   0.17144   0.02529  12.43426   0.11120  53.27805       34381.00      125717.57     1.83411     1.88270     0.72516     0.22338     0.00000   546.38251   546.38251
     7      746.40839      951.31110    -3     3    -1  -0.32252   0.58011   0.02152  11.58266   0.12502  50.69423       25835.00      130500.57     1.90932     2.98377   176.55624     0.30969     0.00000   426.91202   426.91202
    13      991.68945      299.60739    -4     2    -2   0.05791  -0.08118   0.00325   8.25626   0.11087  85.26039       28757.00       48022.57     1.20951     1.50288   179.06154     0.21159     0.00000   282.89581   282.89581
     3      546.08466      225.17906    -3     3    -3   0.13529   0.11600   0.00737   8.44695   0.10453  89.19287       22119.00       35661.57     1.25057     1.26620    14.10367     0.19244     0.00000   992.04352   992.04352
     6     1026.48499      909.48376    -5     3    -1  -0.23800   0.10255   0.01101  14.48293   0.09202  55.44194       29018.00       78310.57     1.59819     2.00426    47.69595     0.22717     0.00000   925.35333   925.35333
     5      925.05139      683.01404    -6     4    -2   0.11871  -0.07777   0.00599  16.07182   0.07272  64.06823       25845.00       65933.57     1.58123     1.89143   163.15129     0.22276     0.00000  1026.79407  1026.79407
     2      426.66544      666.13055    -3     5    -3   0.36389  -0.04575   0.02001  14.34387   0.08302  62.74648       20511.00       63229.57     1.65409     2.04822   178.76151     0.20201     0.00000   746.71240   746.71240
    28        5.00852      893.49628    -1     7    -5   0.60816   0.02831   0.02617  20.99219   0.06280  56.09767        3582.00        8633.57     1.40164     1.62492   165.63480     0.16308     0.00000    27.92388    27.92388
    12      648.66705      500.20599    -6     6    -4   0.23417  -0.01388   0.01220  18.17568   0.05799  72.04772       24559.00       50028.57     1.25441     1.70108   177.97527     0.23752     0.00000   331.86093   331.86093
     8      668.66693      570.49390    -5     5    -3   0.18153  -0.07102   0.00986  15.62782   0.07085  68.09473        1600.00        6003.33     1.64029     2.11552    12.63624     0.12984     0.00000     7.06119     7.06119
    14      868.13458      257.27097    -5     3    -3   0.07176   0.21909   0.00731  10.82458   0.08283  87.48751       11726.00       20356.57     1.19515     1.43813     3.57883     0.17773     0.00000   258.93939   258.93939
     9      331.60077      270.39236    -4     6    -6  -0.52499  -0.10912   0.02400  15.66842   0.05790  86.21400       17925.00       38603.57     1.08996     1.87950     0.00000     0.19014     0.00000   649.00256   649.00256
    10      282.61761      288.49747    -3     5    -5  -0.47761  -0.09400   0.02143  12.96450   0.07071  85.10322       41762.00       62822.57     1.08423     1.54097     0.02735     0.19200     0.00000   669.00220   669.00220
    19      258.62280      619.60260    -3     7    -5  -0.23383  -0.23464   0.01363  19.06967   0.05971  65.97351       14887.00       28728.57     1.21698     1.67877     6.34667     0.21439     0.00000   129.74210   129.74210
    17      858.92877      567.48529    -7     5    -3   0.19439  -0.33319   0.01324  18.23695   0.05971  69.39718        6857.00       16797.57     1.09284     1.94892     0.10595     0.29588     0.00000   464.02228   464.02228
    32      475.11530      454.83560    -6     8    -6  -0.06719   0.02403   0.00354  21.94696   0.04664  74.55818        2367.00        5350.57     1.07579     1.54655     0.76176     0.15009     0.00000   455.00772   455.00772
    20      463.67059      498.16092    -5     7    -5   0.35051  -0.14523   0.01879  19.29541   0.05467  71.98306       11709.00       23857.57     1.17566     1.72233   177.64291     0.21364     0.00000   439.08246   439.08246
    21      721.87585      228.63118    -8     6    -6   0.10052   0.01489   0.00451  18.97064   0.04657  89.11619        1050.00        3114.57     1.32754     1.65465   176.30350     0.10651     0.00000  1012.99841  1012.99841
    15      129.38876       39.62979    -3     5    -7  -0.20223   0.21083   0.00949  13.61022   0.05952  99.85754       10902.00       26442.57     1.53551     1.71089    58.97211     0.21334     0.00000   859.21552   859.21552
    18      438.70221       20.96477    -6     6    -8   0.52194   0.33214   0.02334  17.13026   0.04651 102.15913        7792.00       16374.57     1.24867     1.57266   177.63260     0.20953     0.00000   722.17352   722.17352
    31     1012.71613      601.50037    -9     5    -3   0.03348  -0.23633   0.00621  21.59050   0.05071  68.96740         411.00        2105.57     1.29566     2.04175   172.53603     0.10153     0.00000   699.01947   699.01947
    16      753.60028      232.68677    -7     5    -5  -0.26969   0.19076   0.01330  16.22027   0.05459  88.87581         777.00        2853.57     1.51272     1.87368   177.97031     0.09636     0.00000   475.03152   475.03152
    22      145.61755      355.22806    -3     7    -7  -0.21585  -0.03531   0.00902  18.11964   0.05250  81.32840       19284.00       27902.57     1.15160     1.25389   178.52769     0.18199     0.00000   753.88409   753.88409
    23      364.76544      259.68832    -5     7    -7  -0.05372  -0.13298   0.00493  18.40796   0.04897  86.89169        6328.00       15944.57     1.24043     1.88846   179.21236     0.16611     0.00000   145.93532   145.93532
    30      784.13568       52.50481   -10     6    -8  -0.01484   0.04177   0.00137  21.07088   0.03837 100.14571        4745.00        8190.57     1.11802     1.30385   178.53413     0.14459     0.00000   262.03610   262.03610
    34      300.67813       92.98687    -6     8   -10  -0.02450  -0.00211   0.00098  21.51793   0.03837  97.34336         522.00        2764.24     1.23885     2.33164     5.66252     0.52932     0.00000   615.84363   615.84363
    25      919.97241      273.20630    -9     5    -5   0.06412  -0.01396   0.00260  19.04254   0.04745  86.63296         784.00        3588.57     1.59163     1.94057    77.48338     0.13843     0.00000   784.08112   784.08112
    26       27.57662      162.48895    -3     7    -9   0.20703  -0.02036   0.00700  18.64750   0.04601  92.52849         751.00        2277.57     1.13383     1.78580   176.62711     0.09401     0.00000   301.02658   301.02658
    24      822.90063       31.33148    -9     5    -7   0.15085   0.03153   0.00580  18.39500   0.04357 101.32267        8548.00       14650.57     1.20412     1.33430     0.63456     0.17783     0.00000   365.09549   365.09549
    27      261.67908       78.66349    -5     7    -9  -0.03486  -0.07168   0.00253  18.83559   0.04357  98.10832        2751.00       10122.57     1.71293     1.90197    19.12518     0.17856     0.00000   920.15198   920.15198
    35      698.72845      226.24997    -9     7    -7   0.13847  -0.02892   0.00630  21.73790   0.04060  89.25170           0.00           0.00     0.00000     0.00000     0.00000     0.00000     0.00000     0.00000     0.00000
    29      454.66922       47.77025    -7     7    -9   0.08895   0.02753   0.00377  19.87827   0.04055 100.53976        3342.00       10266.57     1.51044     1.92880    80.26477     0.19740     0.00000   823.12701   823.12701
    33      971.57458       85.58008   -11     5    -7  -0.47419  -0.20437   0.01777  21.18896   0.03885  97.70186         602.00        2301.57     1.33434     1.68748    15.61367     0.10778     0.00000   971.97083   971.97083
latticeparameters=   0.54286   0.54541   0.54075  89.96527  90.24668  90.28981
dpsx, dpsy: 179.00000 168.38699
dd, xcent, ycent:      150.57201      540.60303      212.87601
pitch,yaw,roll:  -0.22645   0.61642   0.00000
dev1, dev2, pixdev:   0.01387   0.01339   0.27014
deviatoric strain in crystal reference u1 u2 u3 (*10^3)
  -0.25360  -2.54025  -2.14382
  -2.54025   4.41666   0.29095
  -2.14382   0.29095  -4.14469
deviatoric strain in sample reference X Y Z (*10^3)
  -0.44607  -0.51469   0.05659
  -0.51469   5.61612   0.31698
   0.05659   0.31698  -5.15167
deviatoric principal strains (*10^3):   5.66845  -0.48799  -5.16209
deviatoric strain principal axes in sample reference:
  -0.08358   0.99609   0.02874
   0.99638   0.08309   0.01774
  -0.01528  -0.03012   0.99943
deviatoric stress in crystal reference u1 u2 u3 (MPa)
      -24.61643     -403.95087     -340.91034
     -403.95087      450.34875       46.26689
     -340.91034       46.26689     -420.34039
deviatoric stress in sample reference X Y Z (MPa)
      -43.98212     -176.18861      -92.34814
     -176.18861      680.01416       31.44725
      -92.34814       31.44725     -630.64008
deviatoric principal stresses (MPa):      722.57721      -72.33700     -644.84821
deviatoric stress principal axes in sample reference:
       -0.22821        0.97286        0.03818
       -0.96184       -0.23135        0.14607
        0.15094       -0.00339        0.98854
total strain in sample reference X Y Z (*10^3)
   1.70247  -0.51469   0.05659
  -0.51469   7.76466   0.31698
   0.05659   0.31698  -3.00313
total principal strains (*10^3):   7.81699   1.66055  -3.01355
total strain principal axes in sample reference:
  -0.08358   0.99609   0.02874
   0.99638   0.08309   0.01774
  -0.01528  -0.03012   0.99943
total stress in crystal reference u1 u2 u3 (MPa)
      606.02362     -403.95087     -340.91034
     -403.95087     1080.98877       46.26689
     -340.91034       46.26689      210.29968
total stress in sample reference X Y Z (MPa)
      586.65796     -176.18861      -92.34814
     -176.18861     1310.65417       31.44725
      -92.34814       31.44725        0.00000
total principal stresses (MPa):     1353.21716      558.30310      -14.20813
total stress principal axes in sample reference:
       -0.22821        0.97286        0.03818
       -0.96184       -0.23135        0.14607
        0.15094       -0.00339        0.98854
dilatational strain (*10^-3):        2.14854
hydrostatic stress (MPa):      632.43738
Von Mises stress (MPa):     1189.43469
equivalent strain (*10^-3):        6.27251
equivalent stress (MPa):     1189.43469
maximum resolved shear stress:       19.61794
coordinates of a, b, c in X, Y, Z
   0.44370  -0.20269   0.23790
   0.19268   0.50588   0.06536
  -0.24585   0.03192   0.48042
coordinates of a*, b*, c* in X, Y, Z
   1.50536  -0.67871   0.81545
   0.65582   1.69716   0.22283
  -0.83465   0.10520   1.64633
