\\vmware-host\Shared Folders\Desktop\SiHyperlaueFinal_shielded_results\results_00073.STR
Number of grains:       1
Grain no:       1   Grainlist file index:       1    Number of peaks:      33
no   x(exp)  y(exp)  h  k  l xdev  ydev  angdev  energy  dspace  twotheta  intens   integr  xwidth   ywidth  tilt  rfactor   pearson  xcentroid  ycentroid
     2      392.63025      871.97046    -2     4    -2  -0.32417  -0.10316   0.01878  12.44771   0.11105  53.29199       42920.00      147770.44     1.75820     2.06870   178.62933     0.20702     0.00000   746.64935   746.64935
     5      746.33771      951.25183    -3     3    -1  -0.35186   0.54134   0.02258  11.59338   0.12490  50.69719       41829.00      107070.44     1.68374     1.82979   141.52856     0.20525     0.00000  1026.76538  1026.76538
    13      991.67889      299.61887    -4     2    -2   0.12470  -0.06928   0.00518   8.25852   0.11084  85.25920       38870.00       67385.44     1.22616     1.56702   179.26672     0.22209     0.00000   282.88303   282.88303
     3      546.05060      225.14613    -3     3    -3   0.10525   0.18200   0.00773   8.45270   0.10446  89.19066       30394.00       46871.44     1.23987     1.24231   134.85796     0.18499     0.00000   992.02362   992.02362
     7     1026.44897      909.50037    -5     3    -1  -0.27570   0.26353   0.01385  14.49303   0.09197  55.43408         463.00        1434.44     1.17577     1.49727   177.64258     0.06793     0.00000    62.00588    62.00588
     6      925.00305      683.02838    -6     4    -2   0.09240   0.01653   0.00429  16.08254   0.07268  64.06223       40840.00      108416.44     1.67702     1.89279    18.18538     0.24253     0.00000   925.35010   925.35010
    36       61.81102      407.68649    -1     3    -3   0.24264   0.30163   0.01308   7.85982   0.12446  78.64908           0.00           0.00     0.00000     0.00000     0.00000     0.00000     0.00000     0.00000     0.00000
     4      426.62842      666.11920    -3     5    -3   0.45330  -0.13184   0.02502  14.35960   0.08292  62.75136       57380.00      194175.44     1.81153     1.87533    10.01599     0.22850     0.00000   546.37933   546.37933
    14      648.66693      500.22330    -6     6    -4   0.16727   0.01745   0.00872  18.19109   0.05795  72.04466       13393.00       23767.44     1.21269     1.47093     4.19607     0.18656     0.00000   258.92105   258.92105
     8      668.66687      570.50000    -5     5    -3   0.11018  -0.03696   0.00595  15.64153   0.07079  68.09221       39642.00      187181.44     1.90372     2.82060   175.35481     0.30644     0.00000   426.84827   426.84827
    11      868.10822      257.28983    -5     3    -3   0.08222   0.20432   0.00710  10.82848   0.08280  87.48723       20963.00       59844.44     1.80937     1.84941    97.88371     0.21964     0.00000   868.37677   868.37677
    10      331.59155      270.35501    -4     6    -6  -0.49956  -0.03417   0.02259  15.68233   0.05785  86.21161       54627.00       81538.44     1.08456     1.53227     0.06527     0.19490     0.00000   669.00470   669.00470
     9      282.61090      288.46552    -3     5    -5  -0.42385  -0.03373   0.01883  12.97650   0.07065  85.10142       22260.00       46423.44     1.08977     1.86846   179.99231     0.19238     0.00000   649.00348   649.00348
    19      258.61734      619.58984    -3     7    -5  -0.05590  -0.38367   0.01062  19.09093   0.05964  65.98084       19781.00       38673.44     1.24174     1.67762     7.15732     0.23241     0.00000   129.72327   129.72327
    17      858.88354      567.50934    -7     5    -3   0.16512  -0.27505   0.01109  18.24896   0.05968  69.39220        8234.00       20545.44     1.08838     1.95023   179.89378     0.30224     0.00000   464.01334   464.01334
    31      474.98926      454.83167    -6     8    -6   0.05106   0.05773   0.00320  21.96825   0.04659  74.55638         493.00        2012.44     1.26208     1.92225     4.20748     0.09677     0.00000   699.02808   699.02808
    20      463.66968      498.16205    -5     7    -5   0.35588  -0.13267   0.01900  19.31487   0.05462  71.98225       13695.00       27918.44     1.17342     1.72749   177.78322     0.22141     0.00000   439.08685   439.08685
    22      721.85291      228.63908    -8     6    -6   0.06063   0.01679   0.00276  18.98003   0.04655  89.11551       23440.00       34297.44     1.16428     1.26883   179.27101     0.19183     0.00000   753.88110   753.88110
    15      129.38914       39.61952    -3     5    -7  -0.22654   0.22429   0.01040  13.62011   0.05948  99.85725       13857.00       31408.44     1.48699     1.64805    33.39924     0.22362     0.00000   859.20966   859.20966
    18      438.70175       20.96741    -6     6    -8   0.42644   0.29683   0.01942  17.13943   0.04649 102.16093        9254.00       18472.44     1.23111     1.52741   177.60399     0.21350     0.00000   722.13770   722.13770
    30     1012.70624      601.57196    -9     5    -3   0.02693  -0.16805   0.00446  21.60166   0.05069  68.96025        5337.00        9317.44     1.11132     1.34693   178.92667     0.15262     0.00000   262.00824   262.00824
    16      753.59406      232.69324    -7     5    -5  -0.31975   0.19108   0.01530  16.22780   0.05456  88.87533         923.00        3157.44     1.52676     1.75438   178.62427     0.10839     0.00000   475.02927   475.02927
    21      145.61504      355.20477    -3     7    -7  -0.05549  -0.04282   0.00266  18.13774   0.05245  81.32972        1223.00        3285.44     1.32321     1.56078   171.72079     0.10442     0.00000  1013.00952  1013.00952
    23      364.75800      259.68866    -5     7    -7  -0.04856  -0.09218   0.00371  18.42379   0.04893  86.88906        7349.00       18821.44     1.24028     1.89089   179.19862     0.17572     0.00000   145.93944   145.93944
    29      784.10577       52.54823   -10     6    -8  -0.00620  -0.10860   0.00333  21.07592   0.03835 100.15228        4072.00       11670.44     1.47049     1.83710    81.45024     0.21351     0.00000   823.14960   823.14960
    32      300.67380       92.96935    -6     8   -10  -0.06429   0.03208   0.00278  21.53325   0.03834  97.34221        2738.00        6053.44     1.07498     1.51701   178.72366     0.16211     0.00000   454.99786   454.99786
    25      919.93042      273.26620    -9     5    -5   0.11685  -0.06504   0.00508  19.04865   0.04744  86.63246         910.00        3951.44     1.59281     1.87718    82.56828     0.14381     0.00000   784.09760   784.09760
    26       27.56757      162.43962    -3     7    -9   0.32132   0.02641   0.01082  18.66343   0.04597  92.52883         822.00        2500.44     1.12542     1.78520   177.04146     0.09967     0.00000   300.99893   300.99893
    24      822.86646       31.38863    -9     5    -7   0.19135  -0.16154   0.00844  18.39833   0.04356 101.33077        9679.00       16345.44     1.20745     1.31343     0.94637     0.18387     0.00000   365.12244   365.12244
    27      261.67780       78.65904    -5     7    -9  -0.07356  -0.05335   0.00324  18.84908   0.04354  98.10734        3522.00       11508.44     1.65859     1.86992    17.31128     0.18715     0.00000   920.16986   920.16986
    35      698.75775      226.32854    -9     7    -7   0.04274  -0.09504   0.00360  21.74918   0.04058  89.25085           0.00           0.00     0.00000     0.00000     0.00000     0.00000     0.00000     0.00000     0.00000
    28      454.66568       47.76217    -7     7    -9   0.00336   0.01446   0.00047  19.88927   0.04053 100.54092        3995.00        9953.44     1.40012     1.70767   169.30363     0.17268     0.00000    27.89706    27.89706
    33      971.56702       85.51724   -11     5    -7  -0.35200  -0.26765   0.01480  21.19101   0.03885  97.70880         654.00        2474.44     1.37972     1.69553     7.75757     0.10745     0.00000   971.97833   971.97833
latticeparameters=   0.54324   0.54485   0.54092  89.94903  90.19412  90.25890
dpsx, dpsy: 179.00000 168.38699
dd, xcent, ycent:      150.57201      540.60303      212.87601
pitch,yaw,roll:  -0.22645   0.61642   0.00000
dev1, dev2, pixdev:   0.01232   0.01210   0.25535
deviatoric strain in crystal reference u1 u2 u3 (*10^3)
   0.44569  -2.26707  -1.68751
  -2.26707   3.40034   0.43549
  -1.68751   0.43549  -3.83280
deviatoric strain in sample reference X Y Z (*10^3)
  -0.26783  -0.86444   0.48895
  -0.86444   4.64951   0.17257
   0.48895   0.17257  -4.36844
deviatoric principal strains (*10^3):   4.79789  -0.35040  -4.43426
deviatoric strain principal axes in sample reference:
  -0.16730   0.98586   0.00964
   0.97824   0.16477   0.12612
  -0.12275  -0.03053   0.99197
deviatoric stress in crystal reference u1 u2 u3 (MPa)
       46.17316     -360.50903     -268.34842
     -360.50903      346.66010       69.25226
     -268.34842       69.25226     -388.94958
deviatoric stress in sample reference X Y Z (MPa)
      -38.83583     -199.81651      -28.18908
     -199.81651      570.17200       20.98823
      -28.18908       20.98823     -527.45245
deviatoric principal stresses (MPa):      630.56464      -97.51922     -529.16174
deviatoric stress principal axes in sample reference:
       -0.28689        0.95766        0.02434
       -0.95646       -0.28777        0.04866
        0.05361       -0.00932        0.99852
total strain in sample reference X Y Z (*10^3)
   1.52916  -0.86444   0.48895
  -0.86444   6.44650   0.17257
   0.48895   0.17257  -2.57145
total principal strains (*10^3):   6.59488   1.44659  -2.63727
total strain principal axes in sample reference:
  -0.16730   0.98586   0.00964
   0.97824   0.16477   0.12612
  -0.12275  -0.03053   0.99197
total stress in crystal reference u1 u2 u3 (MPa)
      573.62561     -360.50903     -268.34842
     -360.50903      874.11255       69.25226
     -268.34842       69.25226      138.50291
total stress in sample reference X Y Z (MPa)
      488.61664     -199.81651      -28.18908
     -199.81651     1097.62451       20.98823
      -28.18908       20.98823        0.00000
total principal stresses (MPa):     1158.01709      429.93329       -1.70928
total stress principal axes in sample reference:
       -0.28689        0.95766        0.02434
       -0.95646       -0.28777        0.04866
        0.05361       -0.00932        0.99852
dilatational strain (*10^-3):        1.79699
hydrostatic stress (MPa):      528.74707
Von Mises stress (MPa):     1015.23071
equivalent strain (*10^-3):        5.34198
equivalent stress (MPa):     1015.23071
maximum resolved shear stress:       15.25434
coordinates of a, b, c in X, Y, Z
   0.44442  -0.20243   0.23852
   0.19251   0.50581   0.06498
  -0.24574   0.03225   0.48107
coordinates of a*, b*, c* in X, Y, Z
   1.50608  -0.67789   0.81478
   0.65601   1.70070   0.22111
  -0.83533   0.10638   1.64671
