\\vmware-host\Shared Folders\Desktop\SiHyperlaueFinal_shielded_results\results_00134.STR
Number of grains:       1
Grain no:       1   Grainlist file index:       1    Number of peaks:      32
no   x(exp)  y(exp)  h  k  l xdev  ydev  angdev  energy  dspace  twotheta  intens   integr  xwidth   ywidth  tilt  rfactor   pearson  xcentroid  ycentroid
     4      392.64185      872.04639    -2     4    -2  -0.29277  -0.12948   0.01711  12.44988   0.11103  53.28973       34995.00      130097.18     1.83520     1.88459    12.00583     0.22325     0.00000   546.38641   546.38641
     6      746.40875      951.33978    -3     3    -1  -0.40020   0.47679   0.02449  11.59459   0.12489  50.69648       30802.00       82839.18     1.60194     2.00458    24.47999     0.24253     0.00000   925.35425   925.35425
    13      991.68689      299.61206    -4     2    -2   0.14644  -0.10238   0.00635   8.25862   0.11083  85.26159       12065.00       20933.18     1.19127     1.43432     3.24782     0.18002     0.00000   258.93945   258.93945
     3      546.08661      225.18880    -3     3    -3   0.07698   0.15636   0.00626   8.45345   0.10445  89.18955       23024.00       36614.18     1.24816     1.25322    48.50409     0.18973     0.00000   992.03735   992.03735
     7     1026.46753      909.49396    -5     3    -1  -0.25588   0.26566   0.01306  14.49357   0.09196  55.43477       27426.00      135811.19     1.90984     2.96088   176.24023     0.30872     0.00000   426.90103   426.90103
     5      925.03815      683.01685    -6     4    -2   0.08415   0.02129   0.00391  16.08328   0.07267  64.06282       28475.00       71668.18     1.68868     1.77899    86.06404     0.20633     0.00000  1026.78687  1026.78687
     2      426.65875      666.13544    -3     5    -3   0.45650  -0.10289   0.02514  14.36184   0.08291  62.74894       24107.00       72262.18     1.65811     2.02488     0.00000     0.20915     0.00000   746.70416   746.70416
    12      648.66699      500.20779    -6     6    -4   0.18254   0.05063   0.00961  18.19284   0.05794  72.04366       29735.00       49209.18     1.20901     1.49177   178.94737     0.21051     0.00000   282.90295   282.90295
     8      668.66699      570.49823    -5     5    -3   0.12688  -0.01686   0.00675  15.64305   0.07079  68.09125       18379.00       39417.18     1.08983     1.87809     0.00000     0.19015     0.00000   649.00391   649.00391
    14      868.12750      257.28378    -5     3    -3   0.07875   0.18389   0.00649  10.82881   0.08280  87.48887       11338.00       26835.18     1.51291     1.68973    72.57520     0.21713     0.00000   859.20856   859.20856
     9      331.59750      270.39197    -4     6    -6  -0.48053  -0.02778   0.02172  15.68433   0.05784  86.20886       42701.00       64077.18     1.08468     1.53257     0.02765     0.19301     0.00000   669.00226   669.00226
    10      282.61749      288.50305    -3     5    -5  -0.39903  -0.02326   0.01771  12.97825   0.07064  85.09840       12183.00       35783.18     1.78038     1.89023   155.74646     0.19937     0.00000   868.33728   868.33728
    19      258.62570      619.60028    -3     7    -5  -0.01194  -0.34227   0.00900  19.09420   0.05963  65.97780       11710.00       23684.18     1.17578     1.71468   177.72803     0.21254     0.00000   439.08969   439.08969
    17      858.91162      567.49707    -7     5    -3   0.15785  -0.26809   0.01070  18.24993   0.05968  69.39264        7978.00       16512.18     1.25489     1.56562   177.29750     0.20598     0.00000   722.17767   722.17767
    31      475.07294      454.82260    -6     8    -6  -0.01078   0.10224   0.00314  21.97104   0.04659  74.55421        2541.00        5425.18     1.07928     1.48029   178.77228     0.14827     0.00000   454.98068   454.98068
    20      463.67050      498.14868    -5     7    -5   0.37943  -0.08138   0.02001  19.31745   0.05461  71.97999        1075.00        3167.18     1.35592     1.64845   171.01392     0.10635     0.00000  1013.01794  1013.01794
    21      721.87122      228.63049    -8     6    -6   0.04942   0.01798   0.00228  18.98109   0.04655  89.11599       19827.00       28726.18     1.15573     1.25518   178.22601     0.18276     0.00000   753.89526   753.89526
    15      129.38921       39.62938    -3     5    -7  -0.19692   0.27166   0.01062  13.62174   0.05947  99.85411         837.00        3046.18     1.48997     1.82272   177.74287     0.10523     0.00000   475.06079   475.06079
    18      438.70206       20.96062    -6     6    -8   0.42611   0.32303   0.01979  17.14088   0.04649 102.15973       15158.00       29332.18     1.21753     1.67837     5.93506     0.21546     0.00000   129.73984   129.73984
    30     1012.71259      601.54755    -9     5    -3   0.05568  -0.16384   0.00491  21.60217   0.05069  68.96160         468.00        1955.18     1.28632     2.04515     6.28118     0.08852     0.00000   699.00183   699.00183
    16      753.59967      232.68866    -7     5    -5  -0.31710   0.18397   0.01511  16.22861   0.05456  88.87608        7334.00       18080.18     1.09138     1.94526   179.98489     0.30232     0.00000   464.02768   464.02768
    22      145.61948      355.23199    -3     7    -7  -0.00560  -0.01314   0.00046  18.14051   0.05245  81.32624        6406.00       16161.18     1.23255     1.88613   179.10429     0.17008     0.00000   145.93987   145.93987
    23      364.76532      259.68475    -5     7    -7  -0.03479  -0.04848   0.00223  18.42603   0.04893  86.88652        8441.00       14298.18     1.19815     1.33220     2.04937     0.17363     0.00000   365.09933   365.09933
    29      784.15491       52.50814   -10     6    -8  -0.05150  -0.10009   0.00372  21.07660   0.03835 100.15419        4767.00        8366.18     1.11787     1.34363   177.10893     0.14496     0.00000   262.01660   262.01660
    32      300.67694       93.01344    -6     8   -10  -0.05218   0.02873   0.00229  21.53562   0.03833  97.33973         576.00        2294.18     1.34141     1.85590    11.89757     0.10521     0.00000   971.97717   971.97717
    24      919.95166      273.23077    -9     5    -5   0.11654  -0.06210   0.00504  19.04906   0.04744  86.63444         782.00        3493.18     1.62755     1.92480    75.05761     0.12932     0.00000   784.05920   784.05920
    26       27.57814      162.45602    -3     7    -9   0.36754   0.07559   0.01251  18.66599   0.04597  92.52525        2867.00        9949.18     1.68538     1.89051    18.75238     0.17628     0.00000   920.13684   920.13684
    25      822.88208       31.34021    -9     5    -7   0.18181  -0.15328   0.00801  18.39879   0.04356 101.33316         750.00        2560.18     1.16589     1.86975   175.88026     0.10507     0.00000   301.02197   301.02197
    27      261.67993       78.66692    -5     7    -9  -0.05781  -0.01667   0.00229  18.85120   0.04354  98.10469        3630.00        8966.18     1.38594     1.67932   168.92964     0.16680     0.00000    27.92395    27.92395
    35      698.73047      226.32141    -9     7    -7   0.07651  -0.09212   0.00453  21.75049   0.04057  89.25112           0.00           0.00     0.00000     0.00000     0.00000     0.00000     0.00000     0.00000     0.00000
    28      454.66806       47.76216    -7     7    -9   0.00207   0.03341   0.00105  19.89096   0.04053 100.53974        3298.00        9858.18     1.48381     1.90170    75.02849     0.19552     0.00000   823.12189   823.12189
    33      971.57666       85.53797   -11     5    -7  -0.33761  -0.34664   0.01580  21.19113   0.03885  97.71209         615.00        2440.83     1.37278     1.71477    15.85652     0.11131     0.00000   971.99982   971.99982
latticeparameters=   0.54329   0.54480   0.54093  89.94889  90.19174  90.25833
dpsx, dpsy: 179.00000 168.38699
dd, xcent, ycent:      150.57201      540.60303      212.87601
pitch,yaw,roll:  -0.22645   0.61642   0.00000
dev1, dev2, pixdev:   0.01227   0.01208   0.24728
deviatoric strain in crystal reference u1 u2 u3 (*10^3)
   0.53503  -2.26185  -1.66688
  -2.26185   3.30282   0.43676
  -1.66688   0.43676  -3.82493
deviatoric strain in sample reference X Y Z (*10^3)
  -0.23134  -0.91741   0.52640
  -0.91741   4.57372   0.14357
   0.52640   0.14357  -4.32946
deviatoric principal strains (*10^3):   4.74316  -0.32670  -4.40354
deviatoric strain principal axes in sample reference:
  -0.18084   0.98350   0.00507
   0.97469   0.17853   0.13458
  -0.13146  -0.02928   0.99089
deviatoric stress in crystal reference u1 u2 u3 (MPa)
       55.23857     -359.67917     -265.06750
     -359.67917      336.72314       69.45415
     -265.06750       69.45415     -388.16965
deviatoric stress in sample reference X Y Z (MPa)
      -35.83623     -204.80894      -23.64993
     -204.80894      562.17023       17.82261
      -23.64993       17.82261     -522.54193
deviatoric principal stresses (MPa):      626.09137      -98.54871     -523.75061
deviatoric stress principal axes in sample reference:
       -0.29620        0.95490        0.02092
       -0.95406       -0.29684        0.04074
        0.04511       -0.00789        0.99895
total strain in sample reference X Y Z (*10^3)
   1.54892  -0.91741   0.52640
  -0.91741   6.35398   0.14357
   0.52640   0.14357  -2.54920
total principal strains (*10^3):   6.52342   1.45356  -2.62328
total strain principal axes in sample reference:
  -0.18084   0.98350   0.00507
   0.97469   0.17853   0.13458
  -0.13146  -0.02928   0.99089
total stress in crystal reference u1 u2 u3 (MPa)
      577.78052     -359.67917     -265.06750
     -359.67917      859.26508       69.45415
     -265.06750       69.45415      134.37227
total stress in sample reference X Y Z (MPa)
      486.70569     -204.80894      -23.64993
     -204.80894     1084.71216       17.82261
      -23.64993       17.82261        0.00000
total principal stresses (MPa):     1148.63330      423.99319       -1.20868
total stress principal axes in sample reference:
       -0.29620        0.95490        0.02092
       -0.95406       -0.29684        0.04074
        0.04511       -0.00789        0.99895
dilatational strain (*10^-3):        1.78026
hydrostatic stress (MPa):      523.80597
Von Mises stress (MPa):     1006.98474
equivalent strain (*10^-3):        5.29121
equivalent stress (MPa):     1006.98474
maximum resolved shear stress:       21.73195
coordinates of a, b, c in X, Y, Z
   0.44451  -0.20241   0.23859
   0.19246   0.50583   0.06496
  -0.24577   0.03224   0.48112
coordinates of a*, b*, c* in X, Y, Z
   1.50615  -0.67770   0.81480
   0.65594   1.70110   0.22107
  -0.83547   0.10639   1.64681
