\\vmware-host\Shared Folders\Desktop\SiHyperlaueFinal_shielded_results\results_00130.STR
Number of grains:       1
Grain no:       1   Grainlist file index:       1    Number of peaks:      32
no   x(exp)  y(exp)  h  k  l xdev  ydev  angdev  energy  dspace  twotheta  intens   integr  xwidth   ywidth  tilt  rfactor   pearson  xcentroid  ycentroid
     4      392.64191      872.04541    -2     4    -2  -0.29542  -0.12987   0.01726  12.44964   0.11104  53.28980       35353.00      130486.42     1.83474     1.88318    12.92454     0.22300     0.00000   546.38690   546.38690
     6      746.39972      951.33472    -3     3    -1  -0.39575   0.46669   0.02418  11.59440   0.12489  50.69702       31627.00       83647.42     1.58320     1.98090   161.74146     0.25704     0.00000   925.35492   925.35492
    13      991.68817      299.61530    -4     2    -2   0.13997  -0.09736   0.00606   8.25860   0.11083  85.26110       11894.00       20615.42     1.19085     1.44351     3.45853     0.17756     0.00000   258.93390   258.93390
     3      546.08508      225.18294    -3     3    -3   0.08062   0.16894   0.00669   8.45333   0.10445  89.18912       23191.00       36359.42     1.24470     1.24508    78.52263     0.18559     0.00000   992.03949   992.03949
     7     1026.45764      909.49780    -5     3    -1  -0.25660   0.24308   0.01287  14.49341   0.09196  55.43535       27941.00      137476.42     1.90980     2.95938   176.21974     0.30815     0.00000   426.90314   426.90314
     5      925.01611      683.00336    -6     4    -2   0.09950   0.02925   0.00463  16.08317   0.07267  64.06302       29391.00       73484.42     1.68762     1.79409   126.80029     0.20090     0.00000  1026.78149  1026.78149
     2      426.65884      666.14081    -3     5    -3   0.45497  -0.10711   0.02506  14.36159   0.08291  62.74888       25060.00       75766.42     1.66735     2.02337   178.48479     0.20864     0.00000   746.69666   746.69666
    12      648.66742      500.21805    -6     6    -4   0.18111   0.04256   0.00950  18.19265   0.05794  72.04353       30003.00       49281.42     1.20721     1.48346   179.17427     0.20915     0.00000   282.90320   282.90320
     8      668.66693      570.50012    -5     5    -3   0.12526  -0.01837   0.00667  15.64289   0.07079  68.09122       18459.00       39027.42     1.08972     1.87467     0.02628     0.18744     0.00000   648.99719   648.99719
    14      868.11835      257.30286    -5     3    -3   0.08601   0.17344   0.00637  10.82876   0.08280  87.48834       11380.00       26712.42     1.50633     1.66926    73.51824     0.22112     0.00000   859.19238   859.19238
     9      331.59976      270.39236    -4     6    -6  -0.48170  -0.02265   0.02177  15.68399   0.05784  86.20851       43167.00       64385.42     1.08535     1.52864   179.92989     0.18910     0.00000   669.00275   669.00275
    10      282.61847      288.50671    -3     5    -5  -0.39957  -0.02141   0.01773  12.97795   0.07064  85.09806       12353.00       36140.42     1.79229     1.86018   150.52798     0.19865     0.00000   868.34509   868.34509
    19      258.62576      619.59845    -3     7    -5  -0.01442  -0.33556   0.00885  19.09381   0.05963  65.97756       11677.00       24194.42     1.17780     1.74152   177.61478     0.21228     0.00000   439.06921   439.06921
    17      858.90271      567.49896    -7     5    -3   0.16228  -0.27051   0.01091  18.24982   0.05968  69.39263        7765.00       16249.42     1.24158     1.58631   177.38618     0.20669     0.00000   722.15875   722.15875
    31      475.06506      454.82690    -6     8    -6  -0.00282   0.10155   0.00308  21.97070   0.04659  74.55399        2470.00        5437.42     1.07688     1.51564   179.93314     0.15040     0.00000   455.00082   455.00082
    20      463.67059      498.15610    -5     7    -5   0.37907  -0.08570   0.02001  19.31714   0.05461  71.97980        1054.00        2994.42     1.33673     1.65060   171.45857     0.09980     0.00000  1013.00012  1013.00012
    21      721.88165      228.63411    -8     6    -6   0.03974   0.02243   0.00192  18.98093   0.04655  89.11547       19748.00       28480.42     1.15620     1.25176   179.02005     0.18044     0.00000   753.89990   753.89990
    15      129.38431       39.62986    -3     5    -7  -0.19118   0.27670   0.01060  13.62133   0.05948  99.85380         822.00        2946.42     1.49846     1.83556   177.80814     0.09981     0.00000   475.07437   475.07437
    18      438.70206       20.97616    -6     6    -8   0.43067   0.31537   0.01984  17.14053   0.04649 102.15926       15063.00       29180.42     1.21625     1.68494     5.71538     0.21195     0.00000   129.74295   129.74295
    30     1012.71185      601.51227    -9     5    -3   0.04800  -0.13126   0.00401  21.60209   0.05069  68.96165         445.00        2164.42     1.28798     2.01959     2.06418     0.10601     0.00000   699.03864   699.03864
    16      753.60120      232.68869    -7     5    -5  -0.31833   0.19220   0.01526  16.22848   0.05456  88.87555        7206.00       17645.42     1.09039     1.94531   179.90659     0.29938     0.00000   464.00552   464.00552
    22      145.61765      355.23615    -3     7    -7  -0.00594  -0.01088   0.00041  18.14004   0.05245  81.32587        6428.00       16229.42     1.23802     1.88250   179.04951     0.17141     0.00000   145.94237   145.94237
    23      364.76013      259.68607    -5     7    -7  -0.02816  -0.04420   0.00192  18.42566   0.04893  86.88616        8414.00       14352.42     1.19801     1.31999   179.63718     0.17916     0.00000   365.09235   365.09235
    29      784.15778       52.55418   -10     6    -8  -0.05233  -0.13389   0.00464  21.07641   0.03835 100.15344        4627.00        8155.42     1.11830     1.34323   176.80058     0.14616     0.00000   262.00726   262.00726
    32      300.68219       93.02142    -6     8   -10  -0.05467   0.02694   0.00236  21.53510   0.03834  97.33935         580.00        2320.42     1.33160     1.77803    11.44680     0.10918     0.00000   971.99048   971.99048
    24      919.96942      273.23724    -9     5    -5   0.09562  -0.05999   0.00424  19.04900   0.04744  86.63392         778.00        3504.42     1.52406     1.82305   171.13252     0.13259     0.00000   784.09552   784.09552
    26       27.58147      162.47945    -3     7    -9   0.36136   0.05844   0.01224  18.66542   0.04597  92.52489        2976.00       10139.42     1.69649     1.90325    68.05688     0.16755     0.00000   920.14777   920.14777
    25      822.86816       31.35972    -9     5    -7   0.19743  -0.15953   0.00859  18.39864   0.04356 101.33236         736.00        2367.42     1.13042     1.84313   179.09196     0.09656     0.00000   300.98923   300.98923
    27      261.68103       78.66342    -5     7    -9  -0.05642  -0.00715   0.00220  18.85072   0.04354  98.10433        3668.00        8797.42     1.36999     1.64540   168.37582     0.16539     0.00000    27.92853    27.92853
    34      698.75140      226.32591    -9     7    -7   0.05663  -0.08871   0.00381  21.75028   0.04057  89.25062         522.00        2764.24     1.23885     2.33164     5.66252     0.52932     0.00000   615.84363   615.84363
    28      454.66476       47.76488    -7     7    -9   0.00963   0.03851   0.00127  19.89057   0.04053 100.53925        3379.00       10008.42     1.58864     1.78020    36.03238     0.20369     0.00000   823.12866   823.12866
    33      971.57050       85.54833   -11     5    -7  -0.33360  -0.34285   0.01562  21.19105   0.03885  97.71128         615.00        2440.83     1.37278     1.71477    15.85652     0.11131     0.00000   971.99982   971.99982
latticeparameters=   0.54328   0.54480   0.54094  89.94906  90.19192  90.25760
dpsx, dpsy: 179.00000 168.38699
dd, xcent, ycent:      150.57201      540.60303      212.87601
pitch,yaw,roll:  -0.22645   0.61642   0.00000
dev1, dev2, pixdev:   0.01225   0.01205   0.24553
deviatoric strain in crystal reference u1 u2 u3 (*10^3)
   0.51258  -2.25546  -1.66843
  -2.25546   3.30138   0.43534
  -1.66843   0.43534  -3.80114
deviatoric strain in sample reference X Y Z (*10^3)
  -0.23639  -0.90738   0.50918
  -0.90738   4.56498   0.14978
   0.50918   0.14978  -4.31579
deviatoric principal strains (*10^3):   4.73109  -0.33222  -4.38606
deviatoric strain principal axes in sample reference:
  -0.17907   0.98382   0.00621
   0.97546   0.17672   0.13133
  -0.12811  -0.02957   0.99132
deviatoric stress in crystal reference u1 u2 u3 (MPa)
       52.94827     -358.66327     -265.31299
     -358.66327      336.56934       69.22756
     -265.31299       69.22756     -385.75714
deviatoric stress in sample reference X Y Z (MPa)
      -36.05314     -203.54572      -25.37435
     -203.54572      561.01996       18.54501
      -25.37435       18.54501     -521.20636
deviatoric principal stresses (MPa):      624.36188      -98.00872     -522.59265
deviatoric stress principal axes in sample reference:
       -0.29524        0.95517        0.02200
       -0.95418       -0.29595        0.04424
        0.04877       -0.00793        0.99878
total strain in sample reference X Y Z (*10^3)
   1.53932  -0.90738   0.50918
  -0.90738   6.34069   0.14978
   0.50918   0.14978  -2.54008
total principal strains (*10^3):   6.50680   1.44349  -2.61035
total strain principal axes in sample reference:
  -0.17907   0.98382   0.00621
   0.97546   0.17672   0.13133
  -0.12811  -0.02957   0.99132
total stress in crystal reference u1 u2 u3 (MPa)
      574.15460     -358.66327     -265.31299
     -358.66327      857.77570       69.22756
     -265.31299       69.22756      135.44922
total stress in sample reference X Y Z (MPa)
      485.15320     -203.54572      -25.37435
     -203.54572     1082.22632       18.54501
      -25.37435       18.54501        0.00000
total principal stresses (MPa):     1145.56824      423.19763       -1.38631
total stress principal axes in sample reference:
       -0.29524        0.95517        0.02200
       -0.95418       -0.29595        0.04424
        0.04877       -0.00793        0.99878
dilatational strain (*10^-3):        1.77571
hydrostatic stress (MPa):      522.45984
Von Mises stress (MPa):     1004.38922
equivalent strain (*10^-3):        5.27453
equivalent stress (MPa):     1004.38922
maximum resolved shear stress:       20.86607
coordinates of a, b, c in X, Y, Z
   0.44449  -0.20240   0.23858
   0.19246   0.50581   0.06496
  -0.24577   0.03225   0.48111
coordinates of a*, b*, c* in X, Y, Z
   1.50613  -0.67773   0.81482
   0.65594   1.70106   0.22106
  -0.83543   0.10641   1.64673
