\\vmware-host\Shared Folders\Desktop\SiHyperlaueFinal_shielded_results\results_00121.STR
Number of grains:       1
Grain no:       1   Grainlist file index:       1    Number of peaks:      32
no   x(exp)  y(exp)  h  k  l xdev  ydev  angdev  energy  dspace  twotheta  intens   integr  xwidth   ywidth  tilt  rfactor   pearson  xcentroid  ycentroid
     2      392.64157      872.02460    -2     4    -2  -0.29776  -0.12203   0.01736  12.44968   0.11103  53.29035       27494.00       85050.81     1.69047     2.02948   178.42412     0.21030     0.00000   746.68524   746.68524
     6      746.38495      951.31885    -3     3    -1  -0.37694   0.49674   0.02345  11.59447   0.12489  50.69651       32992.00       87178.81     1.76793     1.82148    25.70410     0.25169     0.00000   925.34827   925.34827
    14      991.68536      299.61630    -4     2    -2   0.13907  -0.09666   0.00602   8.25872   0.11083  85.26099       11768.00       27646.82     1.50805     1.68361    62.63297     0.21781     0.00000   859.20056   859.20056
     4      546.07532      225.16612    -3     3    -3   0.08411   0.18287   0.00716   8.45356   0.10445  89.18930       37999.00      135866.81     1.82886     1.88043    14.75010     0.22431     0.00000   546.37872   546.37872
     7     1026.48547      909.52557    -5     3    -1  -0.27312   0.24540   0.01358  14.49358   0.09196  55.43434       29182.00      142875.81     1.90916     2.94198   175.69418     0.31048     0.00000   426.89240   426.89240
     5      925.02679      683.01740    -6     4    -2   0.09380   0.02575   0.00436  16.08329   0.07267  64.06257       31331.00       78090.81     1.56211     1.83776   168.49023     0.22384     0.00000  1026.77808  1026.77808
     3      426.65509      666.12891    -3     5    -3   0.45567  -0.10600   0.02510  14.36173   0.08291  62.74945       23945.00       37501.82     1.24075     1.24513    30.26366     0.18614     0.00000   992.03278   992.03278
    12      648.66711      500.21945    -6     6    -4   0.17896   0.03732   0.00937  18.19285   0.05794  72.04375       30875.00       51099.82     1.20864     1.49496   179.05536     0.21087     0.00000   282.89807   282.89807
     8      668.66705      570.49872    -5     5    -3   0.12378  -0.01964   0.00660  15.64302   0.07079  68.09137       19133.00       40646.82     1.09038     1.87367   179.98994     0.19050     0.00000   649.00317   649.00317
    13      868.12885      257.28040    -5     3    -3   0.06999   0.19561   0.00663  10.82894   0.08279  87.48835       12179.00       21045.82     1.19346     1.43864     3.28316     0.17798     0.00000   258.93799   258.93799
     9      331.59592      270.37808    -4     6    -6  -0.48142  -0.01395   0.02174  15.68453   0.05784  86.20887       44912.00       67112.81     1.08427     1.52982     0.07339     0.19305     0.00000   668.99585   668.99585
    10      282.61783      288.50168    -3     5    -5  -0.40151  -0.02302   0.01782  12.97841   0.07064  85.09847       12631.00       37608.82     1.79074     1.88478   164.33932     0.20033     0.00000   868.34174   868.34174
    19      258.62457      619.59851    -3     7    -5  -0.01586  -0.35170   0.00928  19.09413   0.05963  65.97842       11918.00       24294.82     1.16860     1.71673   177.73137     0.21842     0.00000   439.07504   439.07504
    17      858.91382      567.49860    -7     5    -3   0.15276  -0.26648   0.01049  18.24996   0.05968  69.39245        8139.00       16452.82     1.22516     1.54460   178.05219     0.20701     0.00000   722.16022   722.16022
    30      475.05179      454.83533    -6     8    -6   0.00648   0.08550   0.00262  21.97109   0.04659  74.55446         473.00        2036.82     1.31580     2.03119     6.89547     0.09443     0.00000   699.03802   699.03802
    20      463.67117      498.16843    -5     7    -5   0.37478  -0.10638   0.01985  19.31745   0.05461  71.98030        1096.00        3153.82     1.31915     1.60808   175.45593     0.10706     0.00000  1013.02673  1013.02673
    22      721.86127      228.63768    -8     6    -6   0.05354   0.01719   0.00246  18.98133   0.04655  89.11557        6422.00       16502.82     1.23958     1.90083   179.33575     0.16950     0.00000   145.92719   145.92719
    15      129.39055       39.62944    -3     5    -7  -0.19303   0.28053   0.01073  13.62207   0.05947  99.85363         887.00        3190.82     1.47460     1.83374     0.00000     0.10858     0.00000   475.04825   475.04825
    18      438.69934       20.95939    -6     6    -8   0.42648   0.33593   0.02001  17.14127   0.04648 102.15901       15740.00       30187.82     1.21560     1.67608     5.82852     0.21442     0.00000   129.74255   129.74255
    31     1012.72662      601.51935    -9     5    -3   0.03823  -0.12808   0.00372  21.60227   0.05069  68.96119        2412.00        5375.82     1.07805     1.52413   179.14229     0.15098     0.00000   454.98550   454.98550
    16      753.59802      232.68823    -7     5    -5  -0.32160   0.19123   0.01538  16.22881   0.05456  88.87564        7217.00       17866.82     1.08954     1.95097     0.13189     0.29780     0.00000   464.02457   464.02457
    21      145.61473      355.21301    -3     7    -7  -0.00218   0.00129   0.00010  18.14071   0.05244  81.32650       20123.00       29233.82     1.15406     1.25932   179.18507     0.18435     0.00000   753.89777   753.89777
    23      364.76144      259.68643    -5     7    -7  -0.03362  -0.04953   0.00222  18.42627   0.04893  86.88648        8697.00       14596.82     1.19441     1.32343   179.26112     0.17531     0.00000   365.08676   365.08676
    29      784.11304       52.56267   -10     6    -8  -0.01887  -0.14035   0.00437  21.07700   0.03835 100.15334        4770.00        8374.82     1.12092     1.33569   176.55399     0.14811     0.00000   262.04700   262.04700
    33      300.68387       93.02020    -6     8   -10  -0.05926   0.02906   0.00256  21.53607   0.03833  97.33929         610.00        2434.22     1.36405     1.79847    16.01220     0.11308     0.00000   971.97046   971.97046
    24      919.93628      273.24634    -9     5    -5   0.12390  -0.06866   0.00538  19.04929   0.04744  86.63389         837.00        3628.82     1.50462     1.82111   164.55981     0.14135     0.00000   784.07922   784.07922
    26       27.58400      162.46382    -3     7    -9   0.36709   0.07005   0.01247  18.66637   0.04597  92.52513        3050.00       10345.82     1.67115     1.87750    14.72186     0.17964     0.00000   920.15607   920.15607
    25      822.87366       31.34363    -9     5    -7   0.17965  -0.14078   0.00775  18.39915   0.04356 101.33224         784.00        2526.82     1.12884     1.79800   179.15204     0.10402     0.00000   301.01349   301.01349
    27      261.67990       78.66808    -5     7    -9  -0.05690  -0.01027   0.00222  18.85161   0.04354  98.10423        3697.00        9058.82     1.36574     1.67541   169.46539     0.16850     0.00000    27.91687    27.91687
    35      698.75629      226.36693    -9     7    -7   0.04510  -0.13156   0.00468  21.75076   0.04057  89.25073           0.00           0.00     0.00000     0.00000     0.00000     0.00000     0.00000     0.00000     0.00000
    28      454.66412       47.76510    -7     7    -9   0.00324   0.04089   0.00129  19.89138   0.04052 100.53908        3456.00       10184.82     1.49914     1.91302    69.34684     0.19190     0.00000   823.12567   823.12567
    32      971.54425       85.56321   -11     5    -7  -0.31880  -0.35569   0.01549  21.19150   0.03885  97.71120         588.00        2568.82     1.40602     1.82321    14.38340     0.12049     0.00000   971.97559   971.97559
latticeparameters=   0.54329   0.54481   0.54091  89.94671  90.19253  90.25894
dpsx, dpsy: 179.00000 168.38699
dd, xcent, ycent:      150.57201      540.60303      212.87601
pitch,yaw,roll:  -0.22645   0.61642   0.00000
dev1, dev2, pixdev:   0.01224   0.01206   0.24872
deviatoric strain in crystal reference u1 u2 u3 (*10^3)
   0.53188  -2.26725  -1.67366
  -2.26725   3.32931   0.45571
  -1.67366   0.45571  -3.84809
deviatoric strain in sample reference X Y Z (*10^3)
  -0.23904  -0.91951   0.53566
  -0.91951   4.60195   0.16218
   0.53566   0.16218  -4.34982
deviatoric principal strains (*10^3):   4.77116  -0.33086  -4.42720
deviatoric strain principal axes in sample reference:
  -0.17979   0.98368   0.00693
   0.97459   0.17716   0.13705
  -0.13358  -0.03140   0.99054
deviatoric stress in crystal reference u1 u2 u3 (MPa)
       54.92936     -360.53793     -266.14542
     -360.53793      339.42798       72.46654
     -266.14542       72.46654     -390.51389
deviatoric stress in sample reference X Y Z (MPa)
      -36.85176     -205.72754      -22.71317
     -205.72754      565.39685       20.63451
      -22.71317       20.63451     -524.70166
deviatoric principal stresses (MPa):      629.56866      -99.84645     -525.87872
deviatoric stress principal axes in sample reference:
       -0.29560        0.95504        0.02289
       -0.95440       -0.29628        0.03663
        0.04177       -0.01102        0.99907
total strain in sample reference X Y Z (*10^3)
   1.54858  -0.91951   0.53566
  -0.91951   6.38957   0.16218
   0.53566   0.16218  -2.56220
total principal strains (*10^3):   6.55877   1.45675  -2.63958
total strain principal axes in sample reference:
  -0.17979   0.98368   0.00693
   0.97459   0.17716   0.13705
  -0.13358  -0.03140   0.99054
total stress in crystal reference u1 u2 u3 (MPa)
      579.63098     -360.53793     -266.14542
     -360.53793      864.12964       72.46654
     -266.14542       72.46654      134.18774
total stress in sample reference X Y Z (MPa)
      487.84988     -205.72754      -22.71317
     -205.72754     1090.09851       20.63451
      -22.71317       20.63451        0.00000
total principal stresses (MPa):     1154.27026      424.85522       -1.17710
total stress principal axes in sample reference:
       -0.29560        0.95504        0.02289
       -0.95440       -0.29629        0.03663
        0.04177       -0.01102        0.99907
dilatational strain (*10^-3):        1.78762
hydrostatic stress (MPa):      525.98279
Von Mises stress (MPa):     1012.07916
equivalent strain (*10^-3):        5.32124
equivalent stress (MPa):     1012.07916
maximum resolved shear stress:       22.17713
coordinates of a, b, c in X, Y, Z
   0.44451  -0.20242   0.23857
   0.19246   0.50584   0.06498
  -0.24576   0.03224   0.48111
coordinates of a*, b*, c* in X, Y, Z
   1.50616  -0.67771   0.81478
   0.65595   1.70104   0.22108
  -0.83547   0.10631   1.64686
