\\vmware-host\Shared Folders\Desktop\SiHyperlaueFinal_shielded_results\results_00069.STR
Number of grains:       1
Grain no:       1   Grainlist file index:       1    Number of peaks:      33
no   x(exp)  y(exp)  h  k  l xdev  ydev  angdev  energy  dspace  twotheta  intens   integr  xwidth   ywidth  tilt  rfactor   pearson  xcentroid  ycentroid
     2      392.62933      871.97302    -2     4    -2  -0.31942  -0.11071   0.01854  12.44795   0.11105  53.29218       43201.00      150139.61     1.77797     2.06592   178.59705     0.20495     0.00000   746.64343   746.64343
     5      746.32135      951.25397    -3     3    -1  -0.33854   0.54134   0.02192  11.59363   0.12490  50.69709       41367.00      108273.60     1.70264     1.84612   142.05145     0.20399     0.00000  1026.76428  1026.76428
    13      991.67688      299.62003    -4     2    -2   0.12168  -0.07088   0.00509   8.25861   0.11084  85.25921       39111.00       68072.60     1.22693     1.57453   179.25735     0.22174     0.00000   282.88458   282.88458
     3      546.04724      225.14474    -3     3    -3   0.10827   0.18334   0.00785   8.45284   0.10446  89.19066       30930.00       47276.60     1.23661     1.23739   122.71809     0.18249     0.00000   992.01929   992.01929
     7     1026.43787      909.49426    -5     3    -1  -0.27137   0.27228   0.01376  14.49327   0.09197  55.43389         439.00        1500.60     1.16689     1.51323   176.37189     0.07587     0.00000    61.99362    61.99362
     6      925.00647      683.04022    -6     4    -2   0.08363   0.00670   0.00389  16.08279   0.07268  64.06208       40930.00      108918.60     1.61133     1.98163    34.85566     0.23317     0.00000   925.34851   925.34851
    36       61.83664      407.69833    -1     3    -3   0.22572   0.28166   0.01218   7.85994   0.12446  78.64949           0.00           0.00     0.00000     0.00000     0.00000     0.00000     0.00000     0.00000     0.00000
     4      426.62906      666.11688    -3     5    -3   0.45538  -0.13139   0.02513  14.35990   0.08292  62.75144       57886.00      195147.61     1.80886     1.87514    10.70992     0.22877     0.00000   546.37842   546.37842
    14      648.66748      500.22021    -6     6    -4   0.16522   0.02188   0.00862  18.19143   0.05795  72.04457       13577.00       24059.60     1.20999     1.47399     4.01140     0.18611     0.00000   258.92657   258.92657
     8      668.66693      570.50452    -5     5    -3   0.10834  -0.03992   0.00587  15.64183   0.07079  68.09211       39559.00      186967.61     1.90609     2.81946   175.09081     0.30683     0.00000   426.84595   426.84595
    11      868.09967      257.29620    -5     3    -3   0.08669   0.19791   0.00702  10.82861   0.08280  87.48723       21048.00       59731.60     1.79190     1.84990   146.23502     0.21652     0.00000   868.37140   868.37140
    10      331.59067      270.34781    -4     6    -6  -0.49550  -0.02891   0.02240  15.68260   0.05785  86.21173       54740.00       81635.60     1.08448     1.52523     0.10608     0.19498     0.00000   669.00354   669.00354
     9      282.61105      288.46152    -3     5    -5  -0.41992  -0.03243   0.01866  12.97672   0.07064  85.10158       22043.00       46092.60     1.09049     1.86909     0.04197     0.19047     0.00000   649.00677   649.00677
    19      258.61789      619.58734    -3     7    -5  -0.05046  -0.38682   0.01061  19.09128   0.05964  65.98110       19904.00       39036.60     1.23808     1.68035     7.03728     0.23343     0.00000   129.71535   129.71535
    17      858.87878      567.50720    -7     5    -3   0.16545  -0.27118   0.01103  18.24925   0.05968  69.39207        8216.00       20312.60     1.08730     1.94490     0.01929     0.30228     0.00000   464.02213   464.02213
    31      475.03320      454.83987    -6     8    -6   0.00847   0.04933   0.00157  21.96867   0.04659  74.55639         482.00        2276.60     1.28642     2.00543     8.79932     0.11080     0.00000   699.00751   699.00751
    20      463.66998      498.15765    -5     7    -5   0.35722  -0.12869   0.01904  19.31525   0.05462  71.98227       13971.00       28026.60     1.17501     1.71645   177.66905     0.21727     0.00000   439.07690   439.07690
    22      721.85199      228.63680    -8     6    -6   0.05894   0.01930   0.00271  18.98030   0.04655  89.11549       23174.00       34390.60     1.16639     1.28544   179.17316     0.19404     0.00000   753.86322   753.86322
    15      129.38730       39.62087    -3     5    -7  -0.22007   0.21807   0.01011  13.62031   0.05948  99.85755       14178.00       31887.60     1.53275     1.60268    19.57044     0.22286     0.00000   859.19708   859.19708
    18      438.70157       20.95971    -6     6    -8   0.42703   0.30266   0.01952  17.13968   0.04649 102.16105        9361.00       18467.60     1.23411     1.52750   177.66565     0.20784     0.00000   722.17401   722.17401
    30     1012.70209      601.57410    -9     5    -3   0.02507  -0.16894   0.00445  21.60194   0.05069  68.96012        5216.00        9133.60     1.11886     1.37471   177.38814     0.14780     0.00000   262.01837   262.01837
    16      753.58777      232.69373    -7     5    -5  -0.31641   0.19079   0.01516  16.22802   0.05456  88.87531         912.00        3191.60     1.54441     1.80497   173.25816     0.10728     0.00000   475.07327   475.07327
    21      145.61246      355.18588    -3     7    -7  -0.04606  -0.02957   0.00213  18.13803   0.05245  81.33003        1220.00        3273.60     1.34745     1.54707   169.02600     0.10331     0.00000  1012.99713  1012.99713
    23      364.75491      259.68600    -5     7    -7  -0.04290  -0.09102   0.00353  18.42411   0.04893  86.88916        7302.00       19306.60     1.24141     1.90061   179.51268     0.17834     0.00000   145.91750   145.91750
    29      784.09583       52.53842   -10     6    -8   0.00060  -0.10028   0.00306  21.07616   0.03835 100.15237        3963.00       11516.60     1.57873     1.74766    33.58908     0.21501     0.00000   823.13110   823.13110
    32      300.68094       92.95737    -6     8   -10  -0.06878   0.04149   0.00307  21.53359   0.03834  97.34237        2658.00        5820.60     1.07775     1.54530     0.79693     0.15537     0.00000   455.01291   455.01291
    24      919.92987      273.28165    -9     5    -5   0.11289  -0.08069   0.00514  19.04886   0.04744  86.63246        9885.00       16360.60     1.20423     1.30779   179.06932     0.17699     0.00000   365.09814   365.09814
    26       27.57653      162.43166    -3     7    -9   0.31959   0.02764   0.01077  18.66369   0.04597  92.52923         861.00        2513.60     1.11920     1.74206   179.24997     0.09819     0.00000   301.00488   301.00488
    25      822.86298       31.37959    -9     5    -7   0.19144  -0.15442   0.00833  18.39852   0.04356 101.33090         941.00        3968.60     1.61209     1.85277    82.25084     0.14428     0.00000   784.08130   784.08130
    27      261.68091       78.66374    -5     7    -9  -0.07356  -0.06110   0.00336  18.84937   0.04354  98.10754        3561.00       11521.60     1.65824     1.85516    16.48271     0.18856     0.00000   920.15790   920.15790
    34      698.74030      226.28592    -9     7    -7   0.05785  -0.05218   0.00309  21.74950   0.04058  89.25083         522.00        2764.24     1.23885     2.33164     5.66252     0.52932     0.00000   615.84363   615.84363
    28      454.66489       47.77468    -7     7    -9   0.00447   0.00037   0.00018  19.88956   0.04053 100.54102        4092.00       10172.60     1.38478     1.73081   170.51112     0.17093     0.00000    27.92245    27.92245
    33      971.56927       85.54008   -11     5    -7  -0.35848  -0.29273   0.01541  21.19118   0.03885  97.70894         651.00        2415.60     1.36276     1.70781    13.64285     0.10801     0.00000   971.95990   971.95990
latticeparameters=   0.54325   0.54485   0.54092  89.94921  90.19393  90.25799
dpsx, dpsy: 179.00000 168.38699
dd, xcent, ycent:      150.57201      540.60303      212.87601
pitch,yaw,roll:  -0.22645   0.61642   0.00000
dev1, dev2, pixdev:   0.01223   0.01200   0.25165
deviatoric strain in crystal reference u1 u2 u3 (*10^3)
   0.45899  -2.25905  -1.68591
  -2.25905   3.38807   0.43397
  -1.68591   0.43397  -3.83386
deviatoric strain in sample reference X Y Z (*10^3)
  -0.25671  -0.86660   0.49611
  -0.86660   4.63505   0.16998
   0.49611   0.16998  -4.36514
deviatoric principal strains (*10^3):   4.78480  -0.33914  -4.43247
deviatoric strain principal axes in sample reference:
  -0.16852   0.98565   0.00917
   0.97785   0.16600   0.12751
  -0.12415  -0.03046   0.99180
deviatoric stress in crystal reference u1 u2 u3 (MPa)
       47.52335     -359.23438     -268.09396
     -359.23438      345.41101       69.00935
     -268.09396       69.00935     -389.05991
deviatoric stress in sample reference X Y Z (MPa)
      -37.47623     -199.69711      -27.31664
     -199.69711      568.36731       20.78704
      -27.31664       20.78704     -527.01660
deviatoric principal stresses (MPa):      628.93549      -96.43286     -528.62811
deviatoric stress principal axes in sample reference:
       -0.28787        0.95737        0.02402
       -0.95627       -0.28871        0.04673
        0.05167       -0.00952        0.99862
total strain in sample reference X Y Z (*10^3)
   1.53879  -0.86660   0.49611
  -0.86660   6.43056   0.16998
   0.49611   0.16998  -2.56964
total principal strains (*10^3):   6.58031   1.45637  -2.63696
total strain principal axes in sample reference:
  -0.16852   0.98565   0.00917
   0.97785   0.16600   0.12751
  -0.12415  -0.03046   0.99180
total stress in crystal reference u1 u2 u3 (MPa)
      574.53998     -359.23438     -268.09396
     -359.23438      872.42761       69.00935
     -268.09396       69.00935      137.95670
total stress in sample reference X Y Z (MPa)
      489.54037     -199.69711      -27.31664
     -199.69711     1095.38391       20.78704
      -27.31664       20.78704        0.00000
total principal stresses (MPa):     1155.95215      430.58371       -1.61153
total stress principal axes in sample reference:
       -0.28787        0.95737        0.02402
       -0.95627       -0.28871        0.04673
        0.05167       -0.00952        0.99862
dilatational strain (*10^-3):        1.79550
hydrostatic stress (MPa):      528.30811
Von Mises stress (MPa):     1013.14008
equivalent strain (*10^-3):        5.33267
equivalent stress (MPa):     1013.14008
maximum resolved shear stress:       16.11273
coordinates of a, b, c in X, Y, Z
   0.44443  -0.20243   0.23852
   0.19252   0.50581   0.06498
  -0.24574   0.03225   0.48108
coordinates of a*, b*, c* in X, Y, Z
   1.50608  -0.67789   0.81478
   0.65601   1.70075   0.22109
  -0.83534   0.10640   1.64674
