\\vmware-host\Shared Folders\Desktop\SiHyperlaueFinal_shielded_results\results_00137.STR
Number of grains:       1
Grain no:       1   Grainlist file index:       1    Number of peaks:      33
no   x(exp)  y(exp)  h  k  l xdev  ydev  angdev  energy  dspace  twotheta  intens   integr  xwidth   ywidth  tilt  rfactor   pearson  xcentroid  ycentroid
     4      392.64166      872.05225    -2     4    -2  -0.44448   0.16873   0.02539  12.43500   0.11119  53.27772       34826.00      128901.02     1.83513     1.88406     8.87794     0.22240     0.00000   546.38574   546.38574
     7      746.39886      951.33545    -3     3    -1  -0.33425   0.55411   0.02183  11.58329   0.12502  50.69413       27278.00      134710.02     1.90990     2.97451   176.17264     0.30993     0.00000   426.90512   426.90512
    13      991.68823      299.61273    -4     2    -2   0.05844  -0.07419   0.00312   8.25632   0.11087  85.25968       29483.00       49063.02     1.20812     1.50471   178.97552     0.21102     0.00000   282.88828   282.88828
     3      546.08545      225.18646    -3     3    -3   0.13455   0.11885   0.00739   8.44703   0.10453  89.19220       22722.00       36194.02     1.24881     1.25238    48.01664     0.18980     0.00000   992.03613   992.03613
     6     1026.45996      909.49548    -5     3    -1  -0.24290   0.08651   0.01114  14.48347   0.09202  55.44171       30340.00       81272.02     1.72910     1.78540   114.36963     0.25272     0.00000   925.35254   925.35254
     5      925.00342      682.97479    -6     4    -2   0.14629  -0.02954   0.00691  16.07242   0.07272  64.06759       27596.00       69576.02     1.57676     1.91692    36.46206     0.18252     0.00000  1026.78772  1026.78772
     2      426.66348      666.14203    -3     5    -3   0.36341  -0.04215   0.01998  14.34461   0.08301  62.74571       22729.00       69215.02     1.66886     2.03251   178.52669     0.20647     0.00000   746.70068   746.70068
    28        5.03234      893.51691    -1     7    -5   0.59819   0.00840   0.02567  20.99296   0.06280  56.09746        3588.00        8799.02     1.38768     1.65626   167.31677     0.16920     0.00000    27.93220    27.93220
    12      648.66705      500.21860    -6     6    -4   0.22586  -0.01042   0.01177  18.17638   0.05799  72.04675       24917.00       50910.02     1.25566     1.70924   178.33899     0.23501     0.00000   331.86700   331.86700
     8      668.66718      570.49615    -5     5    -3   0.17071  -0.05776   0.00922  15.62850   0.07085  68.09382        1648.00        6058.84     1.79530     1.99798     7.85131     0.12944     0.00000     7.03299     7.03299
    14      868.12756      257.28629    -5     3    -3   0.07808   0.21525   0.00732  10.82465   0.08283  87.48680       11931.00       20484.02     1.18465     1.42450     3.37397     0.17867     0.00000   258.93442   258.93442
     9      331.60019      270.38776    -4     6    -6  -0.52324  -0.09483   0.02386  15.66857   0.05790  86.21338       18729.00       39634.02     1.08848     1.87087   179.93474     0.19183     0.00000   649.00653   649.00653
    10      282.61813      288.49680    -3     5    -5  -0.47664  -0.08381   0.02134  12.96464   0.07071  85.10263       42291.00       63585.02     1.08496     1.53716   179.98721     0.19135     0.00000   668.99951   668.99951
    19      258.62778      619.60266    -3     7    -5  -0.23494  -0.22122   0.01350  19.07045   0.05971  65.97278       15133.00       29319.02     1.21422     1.69397     6.00487     0.21185     0.00000   129.74013   129.74013
    17      858.90784      567.48364    -7     5    -3   0.20024  -0.31852   0.01317  18.23758   0.05971  69.39637        7122.00       17749.02     1.09253     1.94850   179.93704     0.29970     0.00000   464.01163   464.01163
    32      475.07309      454.85178    -6     8    -6  -0.02744   0.02387   0.00158  21.94772   0.04663  74.55721        2506.00        5449.02     1.08303     1.51877   179.36284     0.14667     0.00000   454.98975   454.98975
    20      463.67090      498.16705    -5     7    -5   0.34762  -0.13504   0.01858  19.29617   0.05467  71.98210       11798.00       24086.02     1.17576     1.72348   177.47923     0.21391     0.00000   439.08078   439.08078
    21      721.86688      228.63184    -8     6    -6   0.10899   0.02502   0.00493  18.97078   0.04657  89.11550        1103.00        3179.02     1.36087     1.61907   170.65750     0.10448     0.00000  1013.02081  1013.02081
    15      129.37868       39.63264    -3     5    -7  -0.19740   0.19983   0.00915  13.60992   0.05952  99.85799       11166.00       26687.02     1.51782     1.69523    42.72123     0.21949     0.00000   859.19574   859.19574
    18      438.70227       20.96545    -6     6    -8   0.52499   0.32799   0.02340  17.12996   0.04652 102.15935        7802.00       16248.02     1.24608     1.55693   177.78912     0.21039     0.00000   722.15631   722.15631
    31     1012.71722      601.53235    -9     5    -3   0.01485  -0.25753   0.00653  21.59109   0.05071  68.96669         463.00        1972.02     1.29652     1.92603     5.64850     0.09424     0.00000   699.03473   699.03473
    16      753.59937      232.68661    -7     5    -5  -0.26934   0.20184   0.01345  16.22039   0.05459  88.87512         804.00        3049.02     1.53039     1.85458   177.69872     0.10632     0.00000   475.05722   475.05722
    22      145.61771      355.23953    -3     7    -7  -0.21348  -0.03785   0.00894  18.11983   0.05250  81.32787       19783.00       28569.02     1.15161     1.25536   179.14818     0.18142     0.00000   753.88959   753.88959
    23      364.76611      259.68729    -5     7    -7  -0.05343  -0.12216   0.00463  18.40814   0.04897  86.89107        6442.00       16174.02     1.23906     1.88757   179.07309     0.16840     0.00000   145.93781   145.93781
    30      784.20648       52.47594   -10     6    -8  -0.07640   0.07226   0.00362  21.07061   0.03837 100.14559        4766.00        8272.02     1.11650     1.33642   178.70784     0.14281     0.00000   262.01968   262.01968
    34      300.68488       92.99069    -6     8   -10  -0.03081  -0.00633   0.00125  21.51767   0.03837  97.34339         522.00        2764.24     1.23885     2.33164     5.66252     0.52932     0.00000   615.84363   615.84363
    25      919.94055      273.23492    -9     5    -5   0.09527  -0.03077   0.00393  19.04267   0.04745  86.63226         725.00        3535.02     1.67721     1.96228   108.55529     0.12796     0.00000   784.07227   784.07227
    26       27.57142      162.47026    -3     7    -9   0.20703  -0.00351   0.00697  18.64725   0.04601  92.52859         760.00        2255.02     1.13566     1.76504   177.53165     0.09172     0.00000   300.98325   300.98325
    24      822.89539       31.33864    -9     5    -7   0.16789   0.02461   0.00639  18.39472   0.04358 101.32262        8452.00       14482.02     1.19722     1.33603     2.02664     0.17829     0.00000   365.09418   365.09418
    27      261.67926       78.66672    -5     7    -9  -0.03547  -0.07711   0.00269  18.83532   0.04357  98.10845        2950.00        9969.02     1.67217     1.88700    19.33088     0.17651     0.00000   920.13434   920.13434
    35      698.75275      226.37885    -9     7    -7   0.11373  -0.14709   0.00694  21.73807   0.04060  89.25102           0.00           0.00     0.00000     0.00000     0.00000     0.00000     0.00000     0.00000     0.00000
    29      454.66702       47.76736    -7     7    -9   0.09417   0.02927   0.00399  19.87798   0.04055 100.53984        3390.00       10134.02     1.49782     1.92214    76.77956     0.19221     0.00000   823.11951   823.11951
    33      971.57971       85.54787   -11     5    -7  -0.46518  -0.16801   0.01710  21.18870   0.03885  97.70158         592.00        2329.02     1.30070     1.83220    10.00210     0.10838     0.00000   971.97760   971.97760
latticeparameters=   0.54287   0.54536   0.54079  89.96728  90.24377  90.28720
dpsx, dpsy: 179.00000 168.38699
dd, xcent, ycent:      150.57201      540.60303      212.87601
pitch,yaw,roll:  -0.22645   0.61642   0.00000
dev1, dev2, pixdev:   0.01386   0.01335   0.27154
deviatoric strain in crystal reference u1 u2 u3 (*10^3)
  -0.23666  -2.51720  -2.11866
  -2.51720   4.33200   0.27372
  -2.11866   0.27372  -4.07762
deviatoric strain in sample reference X Y Z (*10^3)
  -0.43144  -0.52295   0.04679
  -0.52295   5.52736   0.29311
   0.04679   0.29311  -5.07820
deviatoric principal strains (*10^3):   5.58069  -0.47587  -5.08710
deviatoric strain principal axes in sample reference:
  -0.08641   0.99589   0.02701
   0.99617   0.08602   0.01561
  -0.01322  -0.02825   0.99951
deviatoric stress in crystal reference u1 u2 u3 (MPa)
      -22.93551     -400.28580     -336.90945
     -400.28580      441.69763       43.52639
     -336.90945       43.52639     -413.56088
deviatoric stress in sample reference X Y Z (MPa)
      -42.50925     -175.51219      -92.48759
     -175.51219      669.86780       28.20730
      -92.48759       28.20730     -622.15735
deviatoric principal stresses (MPa):      712.53320      -70.77460     -636.55737
deviatoric stress principal axes in sample reference:
       -0.23051        0.97238        0.03652
       -0.96087       -0.23338        0.14923
        0.15364       -0.00069        0.98813
total strain in sample reference X Y Z (*10^3)
   1.68820  -0.52295   0.04679
  -0.52295   7.64701   0.29311
   0.04679   0.29311  -2.95856
total principal strains (*10^3):   7.70033   1.64378  -2.96746
total strain principal axes in sample reference:
  -0.08641   0.99589   0.02701
   0.99617   0.08602   0.01561
  -0.01322  -0.02825   0.99951
total stress in crystal reference u1 u2 u3 (MPa)
      599.22180     -400.28580     -336.90945
     -400.28580     1063.85498       43.52639
     -336.90945       43.52639      208.59645
total stress in sample reference X Y Z (MPa)
      579.64807     -175.51219      -92.48759
     -175.51219     1292.02515       28.20730
      -92.48759       28.20730        0.00000
total principal stresses (MPa):     1334.69055      551.38269      -14.40004
total stress principal axes in sample reference:
       -0.23051        0.97238        0.03652
       -0.96087       -0.23338        0.14923
        0.15364       -0.00069        0.98813
dilatational strain (*10^-3):        2.11964
hydrostatic stress (MPa):      623.89105
Von Mises stress (MPa):     1173.39819
equivalent strain (*10^-3):        6.17787
equivalent stress (MPa):     1173.39819
maximum resolved shear stress:       19.16402
coordinates of a, b, c in X, Y, Z
   0.44371  -0.20267   0.23793
   0.19269   0.50585   0.06531
  -0.24586   0.03195   0.48047
coordinates of a*, b*, c* in X, Y, Z
   1.50536  -0.67871   0.81544
   0.65586   1.69736   0.22273
  -0.83462   0.10538   1.64623
