\\vmware-host\Shared Folders\Desktop\SiHyperlaueFinal_shielded_results\results_00047.STR
Number of grains:       1
Grain no:       1   Grainlist file index:       1    Number of peaks:      33
no   x(exp)  y(exp)  h  k  l xdev  ydev  angdev  energy  dspace  twotheta  intens   integr  xwidth   ywidth  tilt  rfactor   pearson  xcentroid  ycentroid
     2      392.62488      871.98737    -2     4    -2  -0.32703  -0.10969   0.01897  12.44789   0.11105  53.29160       59182.00      204768.19     1.79582     2.07061   178.23392     0.21318     0.00000   746.62012   746.62012
     5      746.30341      951.28998    -3     3    -1  -0.33265   0.53219   0.02154  11.59376   0.12490  50.69597       49216.00      127716.18     1.61907     1.93409    97.38515     0.19283     0.00000  1026.74524  1026.74524
    13      991.66852      299.62067    -4     2    -2   0.11941  -0.04268   0.00473   8.25869   0.11084  85.25752       49067.00       85217.18     1.23147     1.56449   179.13486     0.22839     0.00000   282.86487   282.86487
     3      546.03229      225.14919    -3     3    -3   0.12016   0.19244   0.00844   8.45281   0.10446  89.18978       38731.00       58353.18     1.23163     1.23475   134.97266     0.18378     0.00000   992.00220   992.00220
     6     1026.42529      909.52557    -5     3    -1  -0.27566   0.27287   0.01394  14.49354   0.09197  55.43243       46121.00      123067.18     1.60225     1.97839   126.99850     0.23484     0.00000   925.34070   925.34070
     7      924.99188      683.06525    -6     4    -2   0.08541   0.00858   0.00397  16.08301   0.07268  64.06065        1047.00        2428.18     1.15082     1.45755     0.24217     0.08582     0.00000    62.03046    62.03046
    34       61.80827      407.68622    -1     3    -3   0.24248   0.29512   0.01295   7.85981   0.12446  78.64947         522.00        2764.24     1.23885     2.33164     5.66252     0.52932     0.00000   615.84363   615.84363
     4      426.61734      666.12927    -3     5    -3   0.45732  -0.13108   0.02524  14.35982   0.08292  62.75082       79629.00      263368.19     1.79451     1.87342     4.89498     0.23149     0.00000   546.37469   546.37469
    14      648.66693      500.24234    -6     6    -4   0.15828   0.01713   0.00825  18.19146   0.05795  72.04353       14579.00       25843.18     1.22537     1.46566     4.64506     0.18909     0.00000   258.91803   258.91803
     8      668.66687      570.50940    -5     5    -3   0.10001  -0.02626   0.00537  15.64188   0.07079  68.09105       48261.00      220184.19     1.90144     2.76121   175.10796     0.30572     0.00000   426.82413   426.82413
     9      868.07892      257.32266    -5     3    -3   0.10040   0.19625   0.00728  10.82868   0.08280  87.48570       24985.00       51268.18     1.08918     1.85874   179.98688     0.19841     0.00000   649.00464   649.00464
    11      331.58813      270.36481    -4     6    -6  -0.49767  -0.03909   0.02252  15.68244   0.05785  86.21130       32337.00       87879.18     1.66167     1.94372   162.59532     0.23592     0.00000   868.37903   868.37903
    10      282.60898      288.46689    -3     5    -5  -0.42342  -0.03228   0.01881  12.97657   0.07064  85.10124       62926.00       92906.18     1.08389     1.51727     0.08132     0.19400     0.00000   669.00580   669.00580
    19      258.61212      619.59265    -3     7    -5  -0.05595  -0.38411   0.01063  19.09106   0.05964  65.98075       23856.00       46781.18     1.24101     1.68572     7.22524     0.24062     0.00000   129.69617   129.69617
    17      858.86572      567.53094    -7     5    -3   0.16800  -0.27070   0.01111  18.24943   0.05968  69.39069        8773.00       21862.18     1.08686     1.94757   179.81808     0.30138     0.00000   464.01480   464.01480
    31      475.00079      454.87845    -6     8    -6   0.03402   0.02257   0.00190  21.96856   0.04659  74.55567         557.00        2165.18     1.26857     1.94627     6.52124     0.09621     0.00000   699.03186   699.03186
    20      463.66956      498.16891    -5     7    -5   0.35014  -0.12812   0.01868  19.31515   0.05462  71.98158       15131.00       30728.18     1.17396     1.73835   177.63696     0.22040     0.00000   439.08942   439.08942
    22      721.84320      228.64381    -8     6    -6   0.06347   0.03200   0.00302  18.98034   0.04655  89.11423       26245.00       38924.18     1.17158     1.28209   179.09763     0.19910     0.00000   753.87384   753.87384
    15      129.38271       39.61973    -3     5    -7  -0.21719   0.21985   0.01006  13.62011   0.05948  99.85750       15939.00       34476.18     1.45622     1.60246    67.40272     0.22678     0.00000   859.19818   859.19818
    18      438.70114       20.97692    -6     6    -8   0.42873   0.29639   0.01950  17.13955   0.04649 102.16038       10322.00       20287.18     1.21662     1.50997   179.24725     0.21759     0.00000   722.16461   722.16461
    30     1012.70288      601.57867    -9     5    -3   0.00998  -0.14488   0.00369  21.60225   0.05069  68.95855        5772.00        9923.18     1.11617     1.34168   178.85133     0.15369     0.00000   261.99594   261.99594
    16      753.58899      232.69604    -7     5    -5  -0.32236   0.20929   0.01564  16.22806   0.05456  88.87399         982.00        3386.18     1.60931     1.77916   170.03835     0.10889     0.00000   475.07199   475.07199
    21      145.61024      355.18616    -3     7    -7  -0.05274  -0.02728   0.00235  18.13776   0.05245  81.32990        1334.00        3530.18     1.33411     1.54369   169.86041     0.10916     0.00000  1013.01550  1013.01550
    23      364.75500      259.68579    -5     7    -7  -0.04722  -0.08303   0.00344  18.42393   0.04893  86.88866        7852.00       20712.18     1.24877     1.89593   179.53522     0.18278     0.00000   145.92564   145.92564
    29      784.11694       52.57285   -10     6    -8  -0.02264  -0.11080   0.00353  21.07620   0.03835 100.15092        4506.00       12435.18     1.45784     1.80403    83.01199     0.21347     0.00000   823.11859   823.11859
    33      300.68088       92.97661    -6     8   -10  -0.06981   0.02811   0.00295  21.53334   0.03834  97.34201         685.00        2721.18     1.35779     1.68492    19.63804     0.12590     0.00000   972.00323   972.00323
    25      919.91284      273.32114    -9     5    -5   0.12152  -0.09364   0.00563  19.04901   0.04744  86.63086         995.00        4062.18     1.52024     1.81176   165.39571     0.14396     0.00000   784.09338   784.09338
    26       27.57451      162.42598    -3     7    -9   0.31481   0.03160   0.01061  18.66338   0.04597  92.52931         880.00        2702.18     1.12117     1.77941   179.03653     0.10836     0.00000   301.02655   301.02655
    24      822.85632       31.41018    -9     5    -7   0.19561  -0.15916   0.00853  18.39857   0.04356 101.32936       10689.00       17834.18     1.20135     1.30801     0.65160     0.18701     0.00000   365.10507   365.10507
    27      261.67886       78.65744    -5     7    -9  -0.07260  -0.05014   0.00317  18.84914   0.04354  98.10725        4027.00       12300.18     1.62673     1.82473    18.39794     0.19616     0.00000   920.17047   920.17047
    36      698.73083      226.35527    -9     7    -7   0.06335  -0.10265   0.00435  21.74952   0.04058  89.24961           0.00           0.00     0.00000     0.00000     0.00000     0.00000     0.00000     0.00000     0.00000
    28      454.66565       47.76482    -7     7    -9   0.00437   0.02152   0.00070  19.88941   0.04053 100.54031        4333.00       10796.18     1.39099     1.72766   168.71481     0.17886     0.00000    27.91371    27.91371
    32      971.56000       85.59054   -11     5    -7  -0.35632  -0.31218   0.01568  21.19133   0.03885  97.70718        2970.00        6317.18     1.07934     1.51452     2.31492     0.15956     0.00000   454.99228   454.99228
latticeparameters=   0.54324   0.54485   0.54092  89.94935  90.19401  90.25809
dpsx, dpsy: 179.00000 168.38699
dd, xcent, ycent:      150.57201      540.60303      212.87601
pitch,yaw,roll:  -0.22645   0.61642   0.00000
dev1, dev2, pixdev:   0.01229   0.01207   0.25411
deviatoric strain in crystal reference u1 u2 u3 (*10^3)
   0.44808  -2.25995  -1.68656
  -2.25995   3.39413   0.43272
  -1.68656   0.43272  -3.82901
deviatoric strain in sample reference X Y Z (*10^3)
  -0.26194  -0.86147   0.48955
  -0.86147   4.63932   0.17160
   0.48955   0.17160  -4.36419
deviatoric principal strains (*10^3):   4.78715  -0.34390  -4.43005
deviatoric strain principal axes in sample reference:
  -0.16728   0.98586   0.00954
   0.97823   0.16477   0.12615
  -0.12280  -0.03043   0.99197
deviatoric stress in crystal reference u1 u2 u3 (MPa)
       46.41311     -359.37796     -268.19601
     -359.37796      346.02719       68.81172
     -268.19601       68.81172     -388.56674
deviatoric stress in sample reference X Y Z (MPa)
      -37.99611     -199.18372      -28.03707
     -199.18372      568.83667       20.89110
      -28.03707       20.89110     -526.96704
deviatoric principal stresses (MPa):      629.05511      -96.52351     -528.65802
deviatoric stress principal axes in sample reference:
       -0.28697        0.95763        0.02427
       -0.95646       -0.28784        0.04833
        0.05327       -0.00934        0.99854
total strain in sample reference X Y Z (*10^3)
   1.53340  -0.86147   0.48955
  -0.86147   6.43465   0.17160
   0.48955   0.17160  -2.56885
total principal strains (*10^3):   6.58249   1.45143  -2.63472
total strain principal axes in sample reference:
  -0.16728   0.98586   0.00954
   0.97823   0.16477   0.12615
  -0.12280  -0.03043   0.99197
total stress in crystal reference u1 u2 u3 (MPa)
      573.38013     -359.37796     -268.19601
     -359.37796      872.99420       68.81172
     -268.19601       68.81172      138.40028
total stress in sample reference X Y Z (MPa)
      488.97092     -199.18372      -28.03707
     -199.18372     1095.80371       20.89110
      -28.03707       20.89110        0.00000
total principal stresses (MPa):     1156.02222      430.44348       -1.69102
total stress principal axes in sample reference:
       -0.28697        0.95763        0.02427
       -0.95646       -0.28784        0.04833
        0.05327       -0.00934        0.99854
dilatational strain (*10^-3):        1.79534
hydrostatic stress (MPa):      528.25824
Von Mises stress (MPa):     1013.28784
equivalent strain (*10^-3):        5.33294
equivalent stress (MPa):     1013.28784
maximum resolved shear stress:       15.36958
coordinates of a, b, c in X, Y, Z
   0.44442  -0.20244   0.23851
   0.19253   0.50580   0.06498
  -0.24574   0.03225   0.48108
coordinates of a*, b*, c* in X, Y, Z
   1.50607  -0.67794   0.81476
   0.65605   1.70071   0.22110
  -0.83530   0.10640   1.64672
