\\vmware-host\Shared Folders\Desktop\SiHyperlaueFinal_shielded_results\results_00124.STR
Number of grains:       1
Grain no:       1   Grainlist file index:       1    Number of peaks:      33
no   x(exp)  y(exp)  h  k  l xdev  ydev  angdev  energy  dspace  twotheta  intens   integr  xwidth   ywidth  tilt  rfactor   pearson  xcentroid  ycentroid
     3      392.64255      872.03180    -2     4    -2  -0.44640   0.17875   0.02551  12.43490   0.11119  53.27816       23853.00       37582.85     1.24437     1.24813   168.35716     0.18692     0.00000   992.03674   992.03674
     6      746.39087      951.32800    -3     3    -1  -0.31623   0.58127   0.02123  11.58326   0.12502  50.69345       33002.00       87092.85     1.57974     2.00844    45.39875     0.23119     0.00000   925.35614   925.35614
    13      991.68732      299.61703    -4     2    -2   0.05766  -0.07788   0.00317   8.25641   0.11087  85.25964       30556.00       50313.85     1.20661     1.49001   179.06699     0.20943     0.00000   282.89963   282.89963
     4      546.07721      225.17757    -3     3    -3   0.13749   0.12350   0.00759   8.44722   0.10453  89.19247       37105.00      135137.84     1.83083     1.88297    17.58325     0.22355     0.00000   546.38422   546.38422
     7     1026.48413      909.52881    -5     3    -1  -0.24795   0.08881   0.01138  14.48356   0.09202  55.44059       29655.00      144124.84     1.90897     2.94248   175.64738     0.31092     0.00000   426.89319   426.89319
     5      925.03027      683.02209    -6     4    -2   0.13030  -0.06470   0.00639  16.07242   0.07272  64.06711       31084.00       77519.85     1.56500     1.83544   168.19051     0.22440     0.00000  1026.77881  1026.77881
     2      426.65549      666.13696    -3     5    -3   0.37008  -0.04806   0.02035  14.34459   0.08301  62.74628       27092.00       82949.85     1.68205     2.02762   178.44392     0.21035     0.00000   746.68799   746.68799
    28        5.03735      893.49670    -1     7    -5   0.59198  -0.00450   0.02536  20.99303   0.06280  56.09876        3625.00        9014.85     1.39846     1.63357   164.27588     0.17719     0.00000    27.92585    27.92585
    12      648.66724      500.20883    -6     6    -4   0.22633  -0.00553   0.01179  18.17642   0.05799  72.04704       25793.00       52661.85     1.26332     1.70678   178.41216     0.23685     0.00000   331.86075   331.86075
     8      668.66699      570.50232    -5     5    -3   0.17320  -0.06712   0.00940  15.62849   0.07085  68.09401        1679.00        6335.04     1.82520     2.00829    75.30210     0.12609     0.00000     7.02795     7.02795
    14      868.12616      257.28397    -5     3    -3   0.07576   0.21610   0.00730  10.82480   0.08283  87.48689       12027.00       20784.85     1.19246     1.43714     3.51024     0.17760     0.00000   258.92950   258.92950
     9      331.59708      270.38766    -4     6    -6  -0.52349  -0.10148   0.02390  15.66903   0.05790  86.21381       18791.00       40196.85     1.09018     1.87923     0.00000     0.19031     0.00000   649.00891   649.00891
    10      282.61868      288.50388    -3     5    -5  -0.47978  -0.09858   0.02155  12.96503   0.07071  85.10311       44550.00       66417.85     1.08477     1.52295   179.96277     0.19210     0.00000   669.00232   669.00232
    19      258.62469      619.60071    -3     7    -5  -0.23447  -0.23564   0.01367  19.07060   0.05971  65.97365       15518.00       30001.85     1.21479     1.68289     6.01804     0.21518     0.00000   129.73895   129.73895
    17      858.89966      567.48627    -7     5    -3   0.21476  -0.31736   0.01368  18.23759   0.05971  69.39621        7212.00       17937.85     1.09081     1.95172     0.09579     0.29929     0.00000   464.02481   464.02481
    31      475.08603      454.83347    -6     8    -6  -0.04274   0.03308   0.00241  21.94792   0.04663  74.55776         457.00        2031.85     1.28042     2.00424     7.52412     0.09715     0.00000   699.02155   699.02155
    20      463.67007      498.16397    -5     7    -5   0.34640  -0.14164   0.01856  19.29630   0.05467  71.98267       12155.00       24327.85     1.17062     1.71476   177.74986     0.21145     0.00000   439.07458   439.07458
    21      721.87866      228.63284    -8     6    -6   0.09211   0.02106   0.00417  18.97112   0.04657  89.11569        1050.00        3136.85     1.38221     1.66565   170.36990     0.10485     0.00000  1013.00146  1013.00146
    15      129.38545       39.63113    -3     5    -7  -0.19980   0.20613   0.00933  13.61067   0.05952  99.85773       11665.00       27605.85     1.58852     1.62157   118.81247     0.21893     0.00000   859.21027   859.21027
    18      438.70038       20.95921    -6     6    -8   0.51964   0.33837   0.02334  17.13070   0.04651 102.15908        8165.00       17112.85     1.24249     1.58019   177.79466     0.21208     0.00000   722.16272   722.16272
    32     1012.73041      601.54279    -9     5    -3   0.01204  -0.25694   0.00650  21.59116   0.05071  68.96624        2547.00        5476.85     1.08168     1.46451   179.07602     0.15008     0.00000   454.96545   454.96545
    16      753.59869      232.68906    -7     5    -5  -0.27356   0.19669   0.01354  16.22066   0.05459  88.87529         857.00        3169.85     1.47755     1.86557   178.12035     0.10712     0.00000   475.08685   475.08685
    22      145.61494      355.22433    -3     7    -7  -0.21049  -0.03424   0.00880  18.12041   0.05250  81.32854       20115.00       29058.85     1.15467     1.25702   179.11229     0.18274     0.00000   753.88544   753.88544
    23      364.76672      259.68613    -5     7    -7  -0.05786  -0.12720   0.00488  18.40867   0.04897  86.89146        6541.00       16552.85     1.23793     1.88417   179.21490     0.17274     0.00000   145.91771   145.91771
    30      784.12866       52.53616   -10     6    -8  -0.01032   0.01376   0.00057  21.07119   0.03837 100.14551        4726.00        8199.85     1.12025     1.33165   176.82979     0.14343     0.00000   262.01151   262.01151
    33      300.67621       92.97565    -6     8   -10  -0.02522   0.00965   0.00106  21.51862   0.03836  97.34332         582.00        2321.85     1.34878     1.78674    13.48247     0.10872     0.00000   971.97809   971.97809
    25      919.95190      273.23050    -9     5    -5   0.08095  -0.02706   0.00335  19.04290   0.04745  86.63229         803.00        3692.85     1.69225     1.83465   147.86417     0.13601     0.00000   784.05322   784.05322
    26       27.57453      162.47891    -3     7    -9   0.21197  -0.01540   0.00715  18.64819   0.04601  92.52879         785.00        2360.85     1.12928     1.80017   176.85449     0.09472     0.00000   300.98849   300.98849
    24      822.89819       31.33111    -9     5    -7   0.15193   0.03466   0.00586  18.39524   0.04357 101.32251        8637.00       14731.85     1.19203     1.33553     1.04235     0.17940     0.00000   365.10196   365.10196
    27      261.67996       78.66490    -5     7    -9  -0.03798  -0.07341   0.00264  18.83620   0.04357  98.10833        2957.00       10248.85     1.68829     1.88379    15.81928     0.17805     0.00000   920.15094   920.15094
    36      698.74805      226.30807    -9     7    -7   0.11322  -0.07945   0.00568  21.73847   0.04060  89.25121           0.00           0.00     0.00000     0.00000     0.00000     0.00000     0.00000     0.00000     0.00000
    29      454.66498       47.75335    -7     7    -9   0.08899   0.04591   0.00394  19.87879   0.04055 100.53966        3333.00       10317.85     1.52409     1.93201    72.72119     0.19531     0.00000   823.12463   823.12463
    34      971.56238       85.56120   -11     5    -7  -0.46028  -0.17987   0.01706  21.18917   0.03885  97.70153         522.00        2764.24     1.23885     2.33164     5.66252     0.52932     0.00000   615.84363   615.84363
latticeparameters=   0.54288   0.54538   0.54076  89.96482  90.24477  90.28901
dpsx, dpsy: 179.00000 168.38699
dd, xcent, ycent:      150.57201      540.60303      212.87601
pitch,yaw,roll:  -0.22645   0.61642   0.00000
dev1, dev2, pixdev:   0.01384   0.01332   0.26874
deviatoric strain in crystal reference u1 u2 u3 (*10^3)
  -0.22117  -2.53318  -2.12721
  -2.53318   4.37694   0.29499
  -2.12721   0.29499  -4.13761
deviatoric strain in sample reference X Y Z (*10^3)
  -0.43745  -0.53162   0.07530
  -0.53162   5.58145   0.30798
   0.07530   0.30798  -5.12584
deviatoric principal strains (*10^3):   5.63642  -0.48182  -5.13644
deviatoric strain principal axes in sample reference:
  -0.08682   0.99583   0.02789
   0.99604   0.08622   0.02187
  -0.01937  -0.02968   0.99937
deviatoric stress in crystal reference u1 u2 u3 (MPa)
      -21.33213     -402.82635     -338.26907
     -402.82635      446.29562       46.90924
     -338.26907       46.90924     -419.63348
deviatoric stress in sample reference X Y Z (MPa)
      -43.65699     -177.54971      -89.77258
     -177.54971      676.17487       30.57097
      -89.77258       30.57097     -627.18787
deviatoric principal stresses (MPa):      719.46576      -73.43757     -640.69812
deviatoric stress principal axes in sample reference:
       -0.23063        0.97232        0.03745
       -0.96175       -0.23363        0.14302
        0.14781       -0.00303        0.98901
total strain in sample reference X Y Z (*10^3)
   1.69933  -0.53162   0.07530
  -0.53162   7.71823   0.30798
   0.07530   0.30798  -2.98906
total principal strains (*10^3):   7.77320   1.65496  -2.99966
total strain principal axes in sample reference:
  -0.08682   0.99583   0.02789
   0.99604   0.08622   0.02187
  -0.01937  -0.02968   0.99937
total stress in crystal reference u1 u2 u3 (MPa)
      605.85571     -402.82635     -338.26907
     -402.82635     1073.48352       46.90924
     -338.26907       46.90924      207.55437
total stress in sample reference X Y Z (MPa)
      583.53088     -177.54971      -89.77258
     -177.54971     1303.36267       30.57097
      -89.77258       30.57097        0.00000
total principal stresses (MPa):     1346.65356      553.75024      -13.51030
total stress principal axes in sample reference:
       -0.23063        0.97232        0.03745
       -0.96175       -0.23363        0.14302
        0.14781       -0.00303        0.98901
dilatational strain (*10^-3):        2.13678
hydrostatic stress (MPa):      628.96454
Von Mises stress (MPa):     1183.32715
equivalent strain (*10^-3):        6.23882
equivalent stress (MPa):     1183.32715
maximum resolved shear stress:       18.38039
coordinates of a, b, c in X, Y, Z
   0.44373  -0.20269   0.23792
   0.19268   0.50588   0.06534
  -0.24584   0.03194   0.48045
coordinates of a*, b*, c* in X, Y, Z
   1.50539  -0.67869   0.81541
   0.65585   1.69730   0.22277
  -0.83467   0.10525   1.64637
