\\vmware-host\Shared Folders\Desktop\SiHyperlaueFinal_shielded_results\results_00063.STR
Number of grains:       1
Grain no:       1   Grainlist file index:       1    Number of peaks:      33
no   x(exp)  y(exp)  h  k  l xdev  ydev  angdev  energy  dspace  twotheta  intens   integr  xwidth   ywidth  tilt  rfactor   pearson  xcentroid  ycentroid
     2      392.62762      871.97284    -2     4    -2  -0.32213  -0.11555   0.01871  12.44796   0.11105  53.29241       43533.00      151222.50     1.78002     2.07031   178.57932     0.20509     0.00000   746.63977   746.63977
     5      746.31885      951.26038    -3     3    -1  -0.34417   0.53432   0.02213  11.59372   0.12490  50.69705       42047.00      109181.51     1.61207     1.93529   117.38406     0.18349     0.00000  1026.76050  1026.76050
    13      991.67566      299.62299    -4     2    -2   0.11432  -0.05697   0.00468   8.25868   0.11084  85.25822       39628.00       68370.51     1.22489     1.56241   179.23103     0.22120     0.00000   282.87427   282.87427
     3      546.04425      225.14809    -3     3    -3   0.10918   0.18889   0.00802   8.45286   0.10446  89.19008       31113.00       47404.51     1.22608     1.23803   174.98361     0.18273     0.00000   992.01636   992.01636
     7     1026.43384      909.51019    -5     3    -1  -0.28084   0.26252   0.01406  14.49345   0.09197  55.43347         458.00        1541.51     1.14649     1.53304     1.40161     0.07676     0.00000    62.02763    62.02763
     6      924.99048      683.03241    -6     4    -2   0.08947   0.02379   0.00416  16.08300   0.07268  64.06153       41194.00      109542.51     1.71505     1.83881   113.07979     0.24442     0.00000   925.34570   925.34570
    36       61.84201      407.69495    -1     3    -3   0.21653   0.28504   0.01198   7.85990   0.12446  78.64951           0.00           0.00     0.00000     0.00000     0.00000     0.00000     0.00000     0.00000     0.00000
     4      426.62494      666.12067    -3     5    -3   0.45559  -0.13461   0.02515  14.35994   0.08292  62.75143       58465.00      196684.50     1.80633     1.87539     8.20291     0.22820     0.00000   546.37842   546.37842
    14      648.66736      500.22894    -6     6    -4   0.16048   0.02052   0.00837  18.19158   0.05795  72.04412       13241.00       23694.51     1.22020     1.48078     4.62405     0.18802     0.00000   258.92001   258.92001
     8      668.66699      570.50226    -5     5    -3   0.10280  -0.03105   0.00553  15.64196   0.07079  68.09172       40146.00      188390.50     1.90545     2.80385   175.37025     0.30468     0.00000   426.84430   426.84430
    11      868.08636      257.31271    -5     3    -3   0.09401   0.19632   0.00714  10.82870   0.08280  87.48631       21848.00       60412.51     1.76735     1.84979    96.54106     0.22188     0.00000   868.37189   868.37189
    10      331.59009      270.35794    -4     6    -6  -0.49665  -0.03436   0.02246  15.68260   0.05785  86.21144       54894.00       81965.51     1.08455     1.53310     0.10267     0.19220     0.00000   669.00507   669.00507
     9      282.61124      288.46857    -3     5    -5  -0.42201  -0.03573   0.01876  12.97670   0.07064  85.10135       22749.00       47168.51     1.08994     1.86381     0.01727     0.19429     0.00000   649.00696   649.00696
    19      258.61383      619.58521    -3     7    -5  -0.04989  -0.38555   0.01057  19.09126   0.05964  65.98117       19463.00       38608.51     1.24538     1.69639     6.98195     0.23013     0.00000   129.70573   129.70573
    17      858.86670      567.52167    -7     5    -3   0.16929  -0.27547   0.01125  18.24946   0.05968  69.39146        8208.00       20523.51     1.08537     1.94828     0.08728     0.30220     0.00000   464.02460   464.02460
    31      475.00861      454.83435    -6     8    -6   0.02989   0.05977   0.00241  21.96877   0.04659  74.55609         516.00        2131.51     1.26055     2.02573     5.48901     0.09640     0.00000   698.99036   698.99036
    20      463.66925      498.16983    -5     7    -5   0.35461  -0.13675   0.01895  19.31533   0.05462  71.98203       13711.00       27946.51     1.17201     1.73621   177.79323     0.21752     0.00000   439.07205   439.07205
    22      721.84949      228.63835    -8     6    -6   0.05773   0.03006   0.00276  18.98041   0.04655  89.11470       23303.00       34928.51     1.16908     1.28474   179.28761     0.19968     0.00000   753.87488   753.87488
    15      129.37549       39.61841    -3     5    -7  -0.20949   0.22362   0.00993  13.62022   0.05948  99.85736       14437.00       31573.51     1.46666     1.61316    42.15395     0.22154     0.00000   859.19641   859.19641
    18      438.70081       20.97370    -6     6    -8   0.42785   0.29731   0.01948  17.13964   0.04649 102.16052        9436.00       18871.51     1.23353     1.52429   177.75237     0.21589     0.00000   722.13885   722.13885
    30     1012.68689      601.56073    -9     5    -3   0.02881  -0.14319   0.00389  21.60222   0.05069  68.95939        5482.00        9765.51     1.11649     1.35360   178.73418     0.16011     0.00000   262.01459   262.01459
    16      753.58813      232.69559    -7     5    -5  -0.32090   0.20182   0.01548  16.22812   0.05456  88.87449         930.00        3194.51     1.52384     1.75889   176.35211     0.11193     0.00000   475.02072   475.02072
    21      145.61037      355.19366    -3     7    -7  -0.04685  -0.03602   0.00225  18.13797   0.05245  81.32996        1242.00        3361.51     1.30687     1.56203   171.84628     0.10792     0.00000  1013.00299  1013.00299
    23      364.75403      259.68231    -5     7    -7  -0.04369  -0.08200   0.00331  18.42411   0.04893  86.88882        7217.00       18926.51     1.24966     1.89792   179.24091     0.17886     0.00000   145.92001   145.92001
    29      784.11743       52.54353   -10     6    -8  -0.02373  -0.08976   0.00293  21.07621   0.03835 100.15143        4051.00       11517.51     1.60663     1.66330    38.70053     0.21821     0.00000   823.12048   823.12048
    33      300.67828       92.95407    -6     8   -10  -0.06669   0.05037   0.00312  21.53351   0.03834  97.34203         652.00        2511.51     1.35297     1.61832    24.43551     0.11715     0.00000   971.99573   971.99573
    24      919.91327      273.29221    -9     5    -5   0.12249  -0.07547   0.00541  19.04902   0.04744  86.63150        9898.00       16428.51     1.19835     1.30567   179.32458     0.17974     0.00000   365.10660   365.10660
    26       27.57684      162.42979    -3     7    -9   0.31620   0.03076   0.01066  18.66356   0.04597  92.52915         880.00        2474.51     1.12715     1.74294   177.42482     0.09622     0.00000   301.02405   301.02405
    25      822.84790       31.39058    -9     5    -7   0.20353  -0.14865   0.00863  18.39856   0.04356 101.32991         894.00        4066.51     1.67548     1.82742    88.24332     0.14607     0.00000   784.06476   784.06476
    27      261.67944       78.66712    -5     7    -9  -0.07269  -0.05947   0.00331  18.84929   0.04354  98.10723        3747.00       11791.51     1.63486     1.84778    16.92899     0.19068     0.00000   920.14911   920.14911
    35      698.72369      226.36626    -9     7    -7   0.07103  -0.12065   0.00501  21.74961   0.04058  89.25006           0.00           0.00     0.00000     0.00000     0.00000     0.00000     0.00000     0.00000     0.00000
    28      454.66660       47.76704    -7     7    -9   0.00256   0.01675   0.00053  19.88953   0.04053 100.54047        4055.00       10191.51     1.39552     1.72025   168.95500     0.17517     0.00000    27.92335    27.92335
    32      971.56744       85.60214   -11     5    -7  -0.36256  -0.33532   0.01628  21.19129   0.03885  97.70784        2710.00        5791.51     1.08061     1.51410   177.79095     0.15287     0.00000   455.00955   455.00955
latticeparameters=   0.54325   0.54484   0.54093  89.94880  90.19327  90.25703
dpsx, dpsy: 179.00000 168.38699
dd, xcent, ycent:      150.57201      540.60303      212.87601
pitch,yaw,roll:  -0.22645   0.61642   0.00000
dev1, dev2, pixdev:   0.01228   0.01209   0.25471
deviatoric strain in crystal reference u1 u2 u3 (*10^3)
   0.45290  -2.25064  -1.68015
  -2.25064   3.37968   0.43753
  -1.68015   0.43753  -3.81947
deviatoric strain in sample reference X Y Z (*10^3)
  -0.25942  -0.86278   0.49393
  -0.86278   4.62140   0.17489
   0.49393   0.17489  -4.34886
deviatoric principal strains (*10^3):   4.77029  -0.34094  -4.41624
deviatoric strain principal axes in sample reference:
  -0.16812   0.98572   0.00980
   0.97790   0.16552   0.12774
  -0.12429  -0.03106   0.99176
deviatoric stress in crystal reference u1 u2 u3 (MPa)
       46.89864     -357.89618     -267.17722
     -357.89618      344.55212       69.57641
     -267.17722       69.57641     -387.60162
deviatoric stress in sample reference X Y Z (MPa)
      -37.78696     -199.01823      -27.18443
     -199.01823      566.64911       21.52786
      -27.18443       21.52786     -525.01300
deviatoric principal stresses (MPa):      626.99463      -96.51269     -526.63281
deviatoric stress principal axes in sample reference:
       -0.28764        0.95742        0.02468
       -0.95636       -0.28851        0.04618
        0.05133       -0.01032        0.99863
total strain in sample reference X Y Z (*10^3)
   1.52926  -0.86278   0.49393
  -0.86278   6.41008   0.17489
   0.49393   0.17489  -2.56018
total principal strains (*10^3):   6.55897   1.44774  -2.62756
total strain principal axes in sample reference:
  -0.16812   0.98572   0.00980
   0.97790   0.16552   0.12774
  -0.12429  -0.03106   0.99176
total stress in crystal reference u1 u2 u3 (MPa)
      571.91162     -357.89618     -267.17722
     -357.89618      869.56512       69.57641
     -267.17722       69.57641      137.41138
total stress in sample reference X Y Z (MPa)
      487.22604     -199.01823      -27.18443
     -199.01823     1091.66211       21.52786
      -27.18443       21.52786        0.00000
total principal stresses (MPa):     1152.00769      428.50027       -1.61981
total stress principal axes in sample reference:
       -0.28764        0.95742        0.02468
       -0.95636       -0.28851        0.04618
        0.05133       -0.01032        0.99863
dilatational strain (*10^-3):        1.78868
hydrostatic stress (MPa):      526.29602
Von Mises stress (MPa):     1009.78278
equivalent strain (*10^-3):        5.31508
equivalent stress (MPa):     1009.78278
maximum resolved shear stress:       16.06550
coordinates of a, b, c in X, Y, Z
   0.44442  -0.20243   0.23852
   0.19252   0.50580   0.06497
  -0.24574   0.03226   0.48108
coordinates of a*, b*, c* in X, Y, Z
   1.50607  -0.67792   0.81476
   0.65603   1.70076   0.22106
  -0.83532   0.10642   1.64670
