\\vmware-host\Shared Folders\Desktop\SiHyperlaueFinal_shielded_results\results_00001.STR
Number of grains:       1
Grain no:       1   Grainlist file index:       1    Number of peaks:      33
no   x(exp)  y(exp)  h  k  l xdev  ydev  angdev  energy  dspace  twotheta  intens   integr  xwidth   ywidth  tilt  rfactor   pearson  xcentroid  ycentroid
     3      392.61496      871.98456    -2     4    -2  -0.33047  -0.11305   0.01917  12.44823   0.11104  53.29191       51316.00       75775.36     1.22293     1.23465   170.67776     0.17914     0.00000   991.97723   991.97723
     4      746.25610      951.28955    -3     3    -1  -0.30752   0.55017   0.02049  11.59422   0.12490  50.69512      107486.00      352272.38     1.77835     1.87486   179.89189     0.23314     0.00000   546.36969   546.36969
    13      991.65558      299.62473    -4     2    -2   0.10632  -0.01617   0.00408   8.25895   0.11084  85.25568       60359.00      104679.36     1.24074     1.55545   179.08211     0.23317     0.00000   282.86179   282.86179
     2      546.01636      225.16219    -3     3    -3   0.12421   0.19558   0.00864   8.45309   0.10446  89.18871       72739.00      256076.36     1.83435     2.05084   168.44312     0.21637     0.00000   746.59528   746.59528
     6     1026.39844      909.56720    -5     3    -1  -0.27956   0.26355   0.01401  14.49417   0.09196  55.43076       49086.00      134497.36     1.66606     1.89486   102.99798     0.24898     0.00000   925.32446   925.32446
     7      924.95795      683.10034    -6     4    -2   0.09304  -0.00012   0.00433  16.08364   0.07268  64.05911        2500.00        4410.36     1.13889     1.43634     0.24132     0.09619     0.00000    62.05139    62.05139
    29       61.80314      407.68256    -1     3    -3   0.24414   0.28955   0.01289   7.86001   0.12446  78.65000        4924.00       13394.36     1.42751     1.64533    29.70024     0.25007     0.00000   823.15643   823.15643
     5      426.60391      666.14514    -3     5    -3   0.45780  -0.14449   0.02530  14.36028   0.08292  62.75073       54553.00      143402.36     1.63325     1.89278   108.77339     0.19150     0.00000  1026.72595  1026.72595
    15      648.66718      500.27719    -6     6    -4   0.14093  -0.00159   0.00734  18.19213   0.05795  72.04253       18153.00       37280.36     1.42333     1.54896    62.52675     0.22640     0.00000   859.18866   859.18866
    10      668.66675      570.53265    -5     5    -3   0.08200  -0.03332   0.00446  15.64246   0.07079  68.09007       72234.00      104658.36     1.08398     1.47700   179.97331     0.19314     0.00000   668.99988   668.99988
     8      868.05396      257.37686    -5     3    -3   0.10388   0.16892   0.00671  10.82902   0.08280  87.48403       57801.00      252593.36     1.89455     2.67459   175.24521     0.30528     0.00000   426.80341   426.80341
    12      331.58276      270.36880    -4     6    -6  -0.49957  -0.03621   0.02260  15.68295   0.05785  86.21087       37884.00       80398.36     1.29965     1.73155   177.94820     0.25068     0.00000   331.83514   331.83514
     9      282.60510      288.47125    -3     5    -5  -0.42594  -0.03225   0.01892  12.97698   0.07064  85.10098       27891.00       54893.36     1.08923     1.83412   179.95821     0.20081     0.00000   649.01318   649.01318
    19      258.60635      619.59570    -3     7    -5  -0.05933  -0.39294   0.01091  19.09159   0.05964  65.98112       28643.00       56054.36     1.24570     1.68843     7.52175     0.24682     0.00000   129.68410   129.68410
    17      858.84430      567.55438    -7     5    -3   0.16588  -0.27021   0.01103  18.25012   0.05968  69.38922        9321.00       23792.36     1.08528     1.94935   179.96948     0.30218     0.00000   464.00131   464.00131
    31      474.95407      454.84271    -6     8    -6   0.06831   0.06769   0.00413  21.96932   0.04659  74.55511         579.00        2344.36     1.23667     1.90950     1.43788     0.10409     0.00000   699.01361   699.01361
    20      463.66876      498.18747    -5     7    -5   0.33840  -0.13861   0.01813  19.31581   0.05461  71.98111       16513.00       34210.36     1.17607     1.76681   177.70657     0.22153     0.00000   439.08249   439.08249
    22      721.82257      228.65071    -8     6    -6   0.06738   0.04739   0.00338  18.98096   0.04655  89.11279       28840.00       43895.36     1.18754     1.30206   177.02423     0.21236     0.00000   753.85535   753.85535
    14      129.38039       39.61771    -3     5    -7  -0.21448   0.22560   0.01010  13.62049   0.05948  99.85729       15564.00       27679.36     1.23805     1.45214     5.71809     0.19650     0.00000   258.89755   258.89755
    18      438.70187       20.99967    -6     6    -8   0.42149   0.28983   0.01914  17.14006   0.04649 102.15936       11438.00       21461.36     1.20915     1.46721   177.88762     0.21530     0.00000   722.15314   722.15314
    32     1012.68127      601.61426    -9     5    -3   0.00279  -0.15087   0.00379  21.60306   0.05069  68.95679        3227.00        6864.36     1.08543     1.52284   179.24722     0.16543     0.00000   454.99570   454.99570
    16      753.58093      232.70480    -7     5    -5  -0.33198   0.22383   0.01622  16.22859   0.05456  88.87249        1170.00        3649.36     1.54379     1.72028   172.07816     0.11650     0.00000   475.05063   475.05063
    21      145.60451      355.17999    -3     7    -7  -0.05142  -0.02465   0.00227  18.13827   0.05245  81.33012        1434.00        3589.36     1.33872     1.46114   166.45744     0.10561     0.00000  1013.01184  1013.01184
    23      364.74808      259.69061    -5     7    -7  -0.04819  -0.07936   0.00338  18.42454   0.04893  86.88812        8431.00       22300.36     1.25873     1.90063   179.29437     0.18485     0.00000   145.92474   145.92474
    30      784.08160       52.59015   -10     6    -8  -0.00398  -0.10054   0.00308  21.07679   0.03835 100.14928        6311.00       10944.36     1.11473     1.35004   176.87604     0.16371     0.00000   262.03351   262.03351
    33      300.68204       93.01026    -6     8   -10  -0.07519   0.00388   0.00302  21.53400   0.03834  97.34141         728.00        2787.36     1.43195     1.56365    29.69759     0.12339     0.00000   971.98071   971.98071
    25      919.88092      273.36859    -9     5    -5   0.13011  -0.11266   0.00623  19.04961   0.04744  86.62911        1014.00        4247.36     1.50442     1.83040   167.00896     0.15070     0.00000   784.09045   784.09045
    26       27.56885      162.41338    -3     7    -9   0.32095   0.04047   0.01084  18.66388   0.04597  92.52952         949.00        2788.36     1.13567     1.84078   177.38776     0.10172     0.00000   301.03210   301.03210
    24      822.81598       31.45896    -9     5    -7   0.21826  -0.17858   0.00953  18.39907   0.04356 101.32766       11975.00       19681.36     1.20752     1.29224     1.52785     0.18870     0.00000   365.11472   365.11472
    27      261.67819       78.66806    -5     7    -9  -0.07504  -0.05256   0.00328  18.84970   0.04354  98.10674        4714.00       13177.36     1.57455     1.75463    18.18754     0.20444     0.00000   920.16217   920.16217
    36      698.73157      226.37160    -9     7    -7   0.04658  -0.09745   0.00376  21.75023   0.04058  89.24822           0.00           0.00     0.00000     0.00000     0.00000     0.00000     0.00000     0.00000     0.00000
    28      454.66327       47.77994    -7     7    -9  -0.00054   0.02259   0.00071  19.89002   0.04053 100.53929        4578.00       11498.36     1.40714     1.75838   169.79810     0.17548     0.00000    27.89660    27.89660
    34      971.54510       85.60246   -11     5    -7  -0.36480  -0.29072   0.01556  21.19189   0.03885  97.70532         522.00        2764.24     1.23885     2.33164     5.66252     0.52932     0.00000   615.84363   615.84363
latticeparameters=   0.54325   0.54484   0.54092  89.94794  90.19342  90.25698
dpsx, dpsy: 179.00000 168.38699
dd, xcent, ycent:      150.57201      540.60303      212.87601
pitch,yaw,roll:  -0.22645   0.61642   0.00000
dev1, dev2, pixdev:   0.01232   0.01204   0.25562
deviatoric strain in crystal reference u1 u2 u3 (*10^3)
   0.46092  -2.25014  -1.68148
  -2.25014   3.38146   0.44502
  -1.68148   0.44502  -3.82922
deviatoric strain in sample reference X Y Z (*10^3)
  -0.25698  -0.86721   0.50207
  -0.86721   4.62455   0.18031
   0.50207   0.18031  -4.35441
deviatoric principal strains (*10^3):   4.77498  -0.33777  -4.42405
deviatoric strain principal axes in sample reference:
  -0.16884   0.98559   0.01018
   0.97755   0.16612   0.12965
  -0.12609  -0.03184   0.99151
deviatoric stress in crystal reference u1 u2 u3 (MPa)
       47.71752     -357.81757     -267.38867
     -357.81757      344.73563       70.76725
     -267.38867       70.76725     -388.59021
deviatoric stress in sample reference X Y Z (MPa)
      -37.61201     -199.63354      -26.28175
     -199.63354      567.00861       22.47862
      -26.28175       22.47862     -525.53363
deviatoric principal stresses (MPa):      627.70996      -96.76564     -527.08136
deviatoric stress principal axes in sample reference:
       -0.28822        0.95723        0.02523
       -0.95632       -0.28909        0.04346
        0.04890       -0.01160        0.99874
total strain in sample reference X Y Z (*10^3)
   1.53347  -0.86721   0.50207
  -0.86721   6.41501   0.18031
   0.50207   0.18031  -2.56396
total principal strains (*10^3):   6.56543   1.45268  -2.63360
total strain principal axes in sample reference:
  -0.16884   0.98559   0.01018
   0.97755   0.16612   0.12965
  -0.12609  -0.03184   0.99151
total stress in crystal reference u1 u2 u3 (MPa)
      573.25116     -357.81757     -267.38867
     -357.81757      870.26929       70.76725
     -267.38867       70.76725      136.94344
total stress in sample reference X Y Z (MPa)
      487.92163     -199.63354      -26.28175
     -199.63354     1092.54224       22.47862
      -26.28175       22.47862        0.00000
total principal stresses (MPa):     1153.24353      428.76804       -1.54773
total stress principal axes in sample reference:
       -0.28822        0.95723        0.02523
       -0.95632       -0.28909        0.04346
        0.04890       -0.01160        0.99874
dilatational strain (*10^-3):        1.79045
hydrostatic stress (MPa):      526.82129
Von Mises stress (MPa):     1010.83618
equivalent strain (*10^-3):        5.32207
equivalent stress (MPa):     1010.83618
maximum resolved shear stress:       16.89860
coordinates of a, b, c in X, Y, Z
   0.44443  -0.20245   0.23851
   0.19254   0.50580   0.06498
  -0.24572   0.03226   0.48109
coordinates of a*, b*, c* in X, Y, Z
   1.50607  -0.67798   0.81471
   0.65610   1.70074   0.22106
  -0.83529   0.10641   1.64676
