\\vmware-host\Shared Folders\Desktop\SiHyperlaueFinal_shielded_results\results_00028.STR
Number of grains:       1
Grain no:       1   Grainlist file index:       1    Number of peaks:      33
no   x(exp)  y(exp)  h  k  l xdev  ydev  angdev  energy  dspace  twotheta  intens   integr  xwidth   ywidth  tilt  rfactor   pearson  xcentroid  ycentroid
     2      392.62192      871.98291    -2     4    -2  -0.33272  -0.11061   0.01929  12.44793   0.11105  53.29186       58732.00      203203.00     1.80712     2.06065   178.08739     0.21330     0.00000   746.61230   746.61230
     5      746.29163      951.29926    -3     3    -1  -0.32890   0.52709   0.02130  11.59383   0.12490  50.69574       49141.00      127724.01     1.66974     1.85363   105.73043     0.19705     0.00000  1026.73901  1026.73901
    13      991.66852      299.62628    -4     2    -2   0.10939  -0.03833   0.00432   8.25877   0.11084  85.25692       49688.00       86545.01     1.23632     1.56725   179.18187     0.22781     0.00000   282.87064   282.87064
     3      546.02533      225.15372    -3     3    -3   0.11983   0.19226   0.00843   8.45290   0.10446  89.18949       39701.00       59164.00     1.22123     1.23161   169.81113     0.17921     0.00000   992.00024   992.00024
     6     1026.42090      909.54004    -5     3    -1  -0.27971   0.27091   0.01409  14.49369   0.09197  55.43183       45944.00      123345.01     1.60842     1.95005   105.50572     0.24911     0.00000   925.33282   925.33282
     7      924.97180      683.06616    -6     4    -2   0.09699   0.01571   0.00450  16.08314   0.07268  64.06017        1045.00        2235.00     1.13759     1.41014   179.12671     0.07689     0.00000    62.05657    62.05657
    36       61.79606      407.68851    -1     3    -3   0.24861   0.28946   0.01303   7.85990   0.12446  78.64969           0.00           0.00     0.00000     0.00000     0.00000     0.00000     0.00000     0.00000     0.00000
     4      426.61084      666.13428    -3     5    -3   0.45564  -0.13829   0.02516  14.35990   0.08292  62.75095       80981.00      265502.00     1.78734     1.87345     0.30341     0.23065     0.00000   546.37061   546.37061
    14      648.66705      500.25195    -6     6    -4   0.15017   0.01041   0.00782  18.19161   0.05795  72.04333       14493.00       25903.01     1.23184     1.45940     5.14742     0.19400     0.00000   258.91968   258.91968
     8      668.66687      570.51831    -5     5    -3   0.09197  -0.03238   0.00497  15.64199   0.07079  68.09086       49113.00      220058.00     1.89795     2.72590   175.18143     0.30615     0.00000   426.81854   426.81854
     9      868.07202      257.33371    -5     3    -3   0.09820   0.19347   0.00716  10.82879   0.08280  87.48518       25507.00       51465.00     1.08945     1.85080     0.01905     0.19752     0.00000   649.01300   649.01300
    11      331.58432      270.36649    -4     6    -6  -0.50040  -0.03926   0.02264  15.68263   0.05785  86.21121       32971.00       88467.01     1.65173     1.93665   132.83733     0.22140     0.00000   868.38232   868.38232
    10      282.60715      288.46555    -3     5    -5  -0.42800  -0.03017   0.01901  12.97673   0.07064  85.10120       64315.00       94474.01     1.08413     1.50296     0.01960     0.19344     0.00000   669.00256   669.00256
    19      258.61047      619.58948    -3     7    -5  -0.06232  -0.38507   0.01076  19.09119   0.05964  65.98102       24098.00       47164.00     1.23846     1.68831     7.27649     0.24073     0.00000   129.69572   129.69572
    17      858.85626      567.53802    -7     5    -3   0.16901  -0.27132   0.01116  18.24958   0.05968  69.39028        8947.00       22320.01     1.08665     1.94446   179.97491     0.30232     0.00000   464.00699   464.00699
    31      474.95309      454.85526    -6     8    -6   0.07404   0.04655   0.00411  21.96876   0.04659  74.55563         586.00        2282.00     1.26999     1.93571     6.01139     0.09833     0.00000   698.98822   698.98822
    20      463.66904      498.16785    -5     7    -5   0.34288  -0.12688   0.01830  19.31531   0.05462  71.98158       15543.00       31486.01     1.16991     1.73377   177.60992     0.22367     0.00000   439.07227   439.07227
    22      721.83936      228.64603    -8     6    -6   0.05913   0.03623   0.00289  18.98053   0.04655  89.11381       26309.00       39227.00     1.17167     1.28840   179.13391     0.20213     0.00000   753.86377   753.86377
    15      129.38100       39.62027    -3     5    -7  -0.21864   0.22282   0.01016  13.62032   0.05948  99.85729       16231.00       34536.00     1.44195     1.58466    64.85324     0.22647     0.00000   859.18915   859.18915
    18      438.69901       20.97216    -6     6    -8   0.42500   0.30772   0.01953  17.13978   0.04649 102.15996       10616.00       20327.01     1.21152     1.49932   179.29642     0.21225     0.00000   722.16858   722.16858
    30     1012.69049      601.59528    -9     5    -3   0.01324  -0.15176   0.00389  21.60245   0.05069  68.95798        5863.00       10211.00     1.11690     1.34423   178.72200     0.15912     0.00000   262.01239   262.01239
    16      753.58624      232.69789    -7     5    -5  -0.32797   0.21427   0.01593  16.22823   0.05456  88.87354        1055.00        3274.00     1.54378     1.69798     2.09332     0.10817     0.00000   475.07095   475.07095
    21      145.60703      355.19943    -3     7    -7  -0.05569  -0.04217   0.00266  18.13798   0.05245  81.33002        1389.00        3674.00     1.31667     1.52067   171.73386     0.11246     0.00000  1013.00519  1013.00519
    23      364.74915      259.68637    -5     7    -7  -0.04800  -0.08162   0.00343  18.42416   0.04893  86.88853        8031.00       21133.01     1.25873     1.90083   179.34659     0.18236     0.00000   145.91823   145.91823
    29      784.08057       52.58663   -10     6    -8   0.00494  -0.11475   0.00349  21.07643   0.03835 100.15034        4608.00       12630.00     1.44815     1.78132    83.51728     0.22035     0.00000   823.14026   823.14026
    33      300.67993       93.00076    -6     8   -10  -0.07408   0.00798   0.00299  21.53365   0.03834  97.34175         775.00        2795.00     1.38700     1.63916    17.85614     0.12004     0.00000   971.98810   971.98810
    24      919.90405      273.33893    -9     5    -5   0.12083  -0.10247   0.00575  19.04919   0.04744  86.63030       10926.00       17921.01     1.19863     1.29320     0.88589     0.18456     0.00000   365.10727   365.10727
    26       27.56404      162.41940    -3     7    -9   0.32186   0.03846   0.01086  18.66366   0.04597  92.52929         912.00        2721.00     1.12220     1.79110   176.20177     0.10779     0.00000   300.98230   300.98230
    25      822.85284       31.42496    -9     5    -7   0.18988  -0.16321   0.00842  18.39877   0.04356 101.32875         996.00        4163.00     1.50486     1.80114   165.00716     0.15392     0.00000   784.08972   784.08972
    27      261.67871       78.65902    -5     7    -9  -0.07724  -0.04779   0.00329  18.84941   0.04354  98.10700        4229.00       12694.00     1.61451     1.79743    21.05149     0.20366     0.00000   920.15472   920.15472
    35      698.72198      226.34615    -9     7    -7   0.06415  -0.08735   0.00401  21.74975   0.04058  89.24921           0.00           0.00     0.00000     0.00000     0.00000     0.00000     0.00000     0.00000     0.00000
    28      454.66449       47.76636    -7     7    -9  -0.00058   0.02620   0.00082  19.88968   0.04053 100.53991        4239.00       10943.00     1.41548     1.74652   168.47261     0.18399     0.00000    27.90080    27.90080
    32      971.55084       85.60459   -11     5    -7  -0.35788  -0.31417   0.01576  21.19154   0.03885  97.70651        2978.00        6432.00     1.08144     1.51185     1.26593     0.16274     0.00000   455.00336   455.00336
latticeparameters=   0.54325   0.54485   0.54092  89.94821  90.19393  90.25828
dpsx, dpsy: 179.00000 168.38699
dd, xcent, ycent:      150.57201      540.60303      212.87601
pitch,yaw,roll:  -0.22645   0.61642   0.00000
dev1, dev2, pixdev:   0.01235   0.01211   0.25628
deviatoric strain in crystal reference u1 u2 u3 (*10^3)
   0.45178  -2.26157  -1.68586
  -2.26157   3.39800   0.44259
  -1.68586   0.44259  -3.83653
deviatoric strain in sample reference X Y Z (*10^3)
  -0.26514  -0.86590   0.49658
  -0.86590   4.64526   0.17860
   0.49658   0.17860  -4.36688
deviatoric principal strains (*10^3):   4.79441  -0.34623  -4.43493
deviatoric strain principal axes in sample reference:
  -0.16771   0.98578   0.01013
   0.97793   0.16506   0.12811
  -0.12462  -0.03139   0.99171
deviatoric stress in crystal reference u1 u2 u3 (MPa)
       46.79243     -359.63470     -268.08551
     -359.63470      346.42270       70.38014
     -268.08551       70.38014     -389.32877
deviatoric stress in sample reference X Y Z (MPa)
      -38.58636     -199.90639      -27.17765
     -199.90639      569.56647       22.03035
      -27.17765       22.03035     -527.09375
deviatoric principal stresses (MPa):      630.11450      -97.50958     -528.71857
deviatoric stress principal axes in sample reference:
       -0.28726        0.95753        0.02498
       -0.95649       -0.28815        0.04574
        0.05099       -0.01075        0.99864
total strain in sample reference X Y Z (*10^3)
   1.53063  -0.86590   0.49658
  -0.86590   6.44102   0.17860
   0.49658   0.17860  -2.57111
total principal strains (*10^3):   6.59018   1.44953  -2.63917
total strain principal axes in sample reference:
  -0.16771   0.98578   0.01013
   0.97793   0.16506   0.12811
  -0.12462  -0.03139   0.99171
total stress in crystal reference u1 u2 u3 (MPa)
      573.88617     -359.63470     -268.08551
     -359.63470      873.51648       70.38014
     -268.08551       70.38014      137.76498
total stress in sample reference X Y Z (MPa)
      488.50739     -199.90639      -27.17765
     -199.90639     1096.66028       22.03035
      -27.17765       22.03035        0.00000
total principal stresses (MPa):     1157.20825      429.58417       -1.62482
total stress principal axes in sample reference:
       -0.28726        0.95753        0.02498
       -0.95649       -0.28815        0.04574
        0.05099       -0.01075        0.99864
dilatational strain (*10^-3):        1.79577
hydrostatic stress (MPa):      528.38922
Von Mises stress (MPa):     1014.46344
equivalent strain (*10^-3):        5.34009
equivalent stress (MPa):     1014.46344
maximum resolved shear stress:       15.95911
coordinates of a, b, c in X, Y, Z
   0.44442  -0.20245   0.23851
   0.19253   0.50581   0.06498
  -0.24573   0.03225   0.48108
coordinates of a*, b*, c* in X, Y, Z
   1.50608  -0.67795   0.81473
   0.65607   1.70070   0.22109
  -0.83530   0.10638   1.64675
