\\vmware-host\Shared Folders\Desktop\SiHyperlaueFinal_shielded_results\results_00024.STR
Number of grains:       1
Grain no:       1   Grainlist file index:       1    Number of peaks:      33
no   x(exp)  y(exp)  h  k  l xdev  ydev  angdev  energy  dspace  twotheta  intens   integr  xwidth   ywidth  tilt  rfactor   pearson  xcentroid  ycentroid
     2      392.62030      871.98108    -2     4    -2  -0.32880  -0.10132   0.01903  12.44784   0.11105  53.29154       58139.00      201677.70     1.81226     2.06169   178.02682     0.21343     0.00000   746.61023   746.61023
     5      746.28589      951.30389    -3     3    -1  -0.32488   0.52675   0.02110  11.59386   0.12490  50.69557       49024.00      127200.70     1.66806     1.84682   106.88700     0.19743     0.00000  1026.73926  1026.73926
    13      991.66718      299.62924    -4     2    -2   0.10850  -0.03460   0.00426   8.25876   0.11084  85.25652       49463.00       85641.70     1.23557     1.55534   178.83351     0.22930     0.00000   282.86783   282.86783
     3      546.01935      225.15913    -3     3    -3   0.12978   0.18964   0.00868   8.45279   0.10446  89.18931       39219.00       58453.71     1.21176     1.23545   177.34612     0.17946     0.00000   991.99762   991.99762
     6     1026.41821      909.54382    -5     3    -1  -0.28579   0.26563   0.01429  14.49374   0.09197  55.43177       45830.00      122933.70     1.60827     1.94801   104.45379     0.25113     0.00000   925.33087   925.33087
     7      924.96997      683.06824    -6     4    -2   0.09441   0.01797   0.00438  16.08319   0.07268  64.05992        1048.00        2222.71     1.14797     1.42136   179.13702     0.07496     0.00000    62.01417    62.01417
    36       61.79499      407.68747    -1     3    -3   0.24743   0.29068   0.01302   7.85969   0.12446  78.64969           0.00           0.00     0.00000     0.00000     0.00000     0.00000     0.00000     0.00000     0.00000
     4      426.60907      666.13409    -3     5    -3   0.46000  -0.13237   0.02539  14.35977   0.08292  62.75065       80106.00      263368.72     1.78202     1.87546     1.47713     0.23085     0.00000   546.37012   546.37012
    14      648.66736      500.25540    -6     6    -4   0.15166   0.01285   0.00790  18.19153   0.05795  72.04299       14479.00       25845.71     1.23316     1.46760     4.93846     0.19024     0.00000   258.91290   258.91290
     8      668.66687      570.52362    -5     5    -3   0.09316  -0.03153   0.00503  15.64195   0.07079  68.09052       49593.00      221501.70     1.89745     2.71659   175.24446     0.30612     0.00000   426.81400   426.81400
     9      868.06494      257.34790    -5     3    -3   0.10591   0.18560   0.00716  10.82874   0.08280  87.48480       25807.00       51972.71     1.08961     1.85060   179.95140     0.19694     0.00000   649.00262   649.00262
    11      331.58530      270.35791    -4     6    -6  -0.49851  -0.03036   0.02254  15.68231   0.05785  86.21119       33636.00       88990.70     1.64965     1.91683   112.89366     0.22676     0.00000   868.37463   868.37463
    10      282.60718      288.47131    -3     5    -5  -0.42578  -0.03597   0.01892  12.97644   0.07065  85.10120       64060.00       93772.70     1.08408     1.49448   179.98048     0.19278     0.00000   669.00122   669.00122
    19      258.60962      619.59009    -3     7    -5  -0.05964  -0.38127   0.01062  19.09088   0.05964  65.98078       24239.00       47345.71     1.23764     1.68867     7.29670     0.24039     0.00000   129.69342   129.69342
    17      858.85541      567.54022    -7     5    -3   0.16781  -0.26765   0.01105  18.24960   0.05968  69.38994        8780.00       22230.71     1.08695     1.95010     0.05029     0.29987     0.00000   464.03018   464.03018
    31      474.97742      454.87479    -6     8    -6   0.05279   0.03125   0.00291  21.96851   0.04659  74.55537         577.00        2231.71     1.25612     1.99971     4.50383     0.09282     0.00000   699.02515   699.02515
    20      463.66953      498.18323    -5     7    -5   0.34535  -0.13774   0.01848  19.31510   0.05462  71.98131       15278.00       31109.71     1.17152     1.74474   177.76817     0.21926     0.00000   439.07507   439.07507
    22      721.83429      228.64575    -8     6    -6   0.06709   0.04151   0.00328  18.98038   0.04655  89.11349       26273.00       39564.71     1.17971     1.29827   177.42479     0.20428     0.00000   753.85559   753.85559
    15      129.38045       39.62047    -3     5    -7  -0.21938   0.21560   0.01004  13.61991   0.05948  99.85768       16508.00       35078.71     1.44261     1.58245    64.74675     0.22566     0.00000   859.19537   859.19537
    18      438.70059       20.98019    -6     6    -8   0.42804   0.29774   0.01949  17.13942   0.04649 102.16009       10632.00       20514.71     1.21572     1.48801   179.18747     0.21602     0.00000   722.15930   722.15930
    30     1012.68591      601.59186    -9     5    -3   0.01180  -0.14411   0.00369  21.60251   0.05069  68.95771        5806.00        9938.71     1.11942     1.35035   176.94608     0.15201     0.00000   262.02747   262.02747
    16      753.58264      232.70030    -7     5    -5  -0.32186   0.21720   0.01573  16.22811   0.05456  88.87321        1009.00        3453.71     1.58595     1.73733   168.96445     0.11629     0.00000   475.04922   475.04922
    21      145.60512      355.18948    -3     7    -7  -0.05400  -0.03255   0.00247  18.13752   0.05245  81.33004        1391.00        3646.71     1.31694     1.52179   171.64951     0.11219     0.00000  1012.99268  1012.99268
    23      364.75037      259.68805    -5     7    -7  -0.04600  -0.08267   0.00340  18.42380   0.04893  86.88849        7942.00       21031.71     1.26088     1.90108   179.48831     0.18156     0.00000   145.90962   145.90962
    29      784.09967       52.58722   -10     6    -8  -0.01008  -0.11110   0.00343  21.07621   0.03835 100.15007        4637.00       12856.71     1.48155     1.79539    86.42912     0.21946     0.00000   823.14258   823.14258
    33      300.68307       92.94998    -6     8   -10  -0.07452   0.05567   0.00348  21.53312   0.03834  97.34194         725.00        2847.71     1.41194     1.57670    14.16701     0.12653     0.00000   971.97876   971.97876
    25      919.90143      273.35068    -9     5    -5   0.12299  -0.10765   0.00590  19.04914   0.04744  86.62991        1007.00        4235.71     1.47680     1.81291   168.83868     0.15262     0.00000   784.08344   784.08344
    26       27.56479      162.42326    -3     7    -9   0.31692   0.02927   0.01068  18.66308   0.04597  92.52958         892.00        2672.71     1.11864     1.72562   176.02582     0.11066     0.00000   301.02222   301.02222
    24      822.86139       31.41128    -9     5    -7   0.18528  -0.14498   0.00799  18.39859   0.04356 101.32846       11000.00       18031.71     1.20088     1.29477     0.74869     0.18397     0.00000   365.11185   365.11185
    27      261.68045       78.65899    -5     7    -9  -0.07697  -0.05178   0.00334  18.84892   0.04354  98.10725        4267.00       12482.71     1.60323     1.77949    16.42807     0.20304     0.00000   920.17255   920.17255
    35      698.75049      226.39832    -9     7    -7   0.03877  -0.13478   0.00466  21.74955   0.04058  89.24891           0.00           0.00     0.00000     0.00000     0.00000     0.00000     0.00000     0.00000     0.00000
    28      454.66483       47.78133    -7     7    -9   0.00370   0.01004   0.00035  19.88928   0.04053 100.54000        4277.00       10824.71     1.41460     1.72267   166.92612     0.18224     0.00000    27.90223    27.90223
    32      971.53662       85.59216   -11     5    -7  -0.34251  -0.29526   0.01499  21.19142   0.03885  97.70614        2961.00        6423.71     1.08303     1.53613   177.80643     0.16193     0.00000   454.96851   454.96851
latticeparameters=   0.54324   0.54485   0.54093  89.94972  90.19374  90.25720
dpsx, dpsy: 179.00000 168.38699
dd, xcent, ycent:      150.57201      540.60303      212.87601
pitch,yaw,roll:  -0.22645   0.61642   0.00000
dev1, dev2, pixdev:   0.01229   0.01205   0.25440
deviatoric strain in crystal reference u1 u2 u3 (*10^3)
   0.44011  -2.25216  -1.68429
  -2.25216   3.39346   0.42958
  -1.68429   0.42958  -3.82042
deviatoric strain in sample reference X Y Z (*10^3)
  -0.26172  -0.85280   0.48557
  -0.85280   4.63188   0.17268
   0.48557   0.17268  -4.35700
deviatoric principal strains (*10^3):   4.77712  -0.34194  -4.42202
deviatoric strain principal axes in sample reference:
  -0.16594   0.98609   0.00982
   0.97856   0.16343   0.12537
  -0.12202  -0.03041   0.99206
deviatoric stress in crystal reference u1 u2 u3 (MPa)
       45.60053     -358.13785     -267.83566
     -358.13785      345.95670       68.31112
     -267.83566       68.31112     -387.69504
deviatoric stress in sample reference X Y Z (MPa)
      -37.75775     -197.92218      -28.30529
     -197.92218      567.74817       20.97204
      -28.30529       20.97204     -526.12830
deviatoric principal stresses (MPa):      627.39178      -95.67698     -527.85266
deviatoric stress principal axes in sample reference:
       -0.28607        0.95790        0.02444
       -0.95669       -0.28696        0.04893
        0.05388       -0.00938        0.99850
total strain in sample reference X Y Z (*10^3)
   1.53076  -0.85280   0.48557
  -0.85280   6.42436   0.17268
   0.48557   0.17268  -2.56452
total principal strains (*10^3):   6.56959   1.45054  -2.62954
total strain principal axes in sample reference:
  -0.16594   0.98609   0.00982
   0.97856   0.16343   0.12537
  -0.12202  -0.03041   0.99206
total stress in crystal reference u1 u2 u3 (MPa)
      571.72876     -358.13785     -267.83566
     -358.13785      872.08496       68.31112
     -267.83566       68.31112      138.43323
total stress in sample reference X Y Z (MPa)
      488.37051     -197.92218      -28.30529
     -197.92218     1093.87646       20.97204
      -28.30529       20.97204        0.00000
total principal stresses (MPa):     1153.52002      430.45132       -1.72439
total stress principal axes in sample reference:
       -0.28607        0.95790        0.02444
       -0.95669       -0.28696        0.04893
        0.05388       -0.00938        0.99850
dilatational strain (*10^-3):        1.79248
hydrostatic stress (MPa):      527.41565
Von Mises stress (MPa):     1010.98816
equivalent strain (*10^-3):        5.32240
equivalent stress (MPa):     1010.98816
maximum resolved shear stress:       14.71768
coordinates of a, b, c in X, Y, Z
   0.44441  -0.20244   0.23851
   0.19254   0.50579   0.06498
  -0.24573   0.03226   0.48108
coordinates of a*, b*, c* in X, Y, Z
   1.50606  -0.67798   0.81475
   0.65606   1.70069   0.22109
  -0.83528   0.10643   1.64670
