\\vmware-host\Shared Folders\Desktop\SiHyperlaueFinal_shielded_results\results_00070.STR
Number of grains:       1
Grain no:       1   Grainlist file index:       1    Number of peaks:      33
no   x(exp)  y(exp)  h  k  l xdev  ydev  angdev  energy  dspace  twotheta  intens   integr  xwidth   ywidth  tilt  rfactor   pearson  xcentroid  ycentroid
     2      392.63034      871.97015    -2     4    -2  -0.32762  -0.11589   0.01902  12.44761   0.11105  53.29255       43072.00      149443.81     1.76700     2.07141   178.56883     0.20810     0.00000   746.64709   746.64709
     5      746.33032      951.25421    -3     3    -1  -0.35183   0.52561   0.02243  11.59335   0.12490  50.69764       41752.00      107764.81     1.75331     1.76460    92.44296     0.21388     0.00000  1026.76624  1026.76624
    13      991.67841      299.61691    -4     2    -2   0.11969  -0.05389   0.00484   8.25859   0.11084  85.25841       39255.00       68662.81     1.22667     1.58118   179.50439     0.22207     0.00000   282.88083   282.88083
     3      546.04462      225.14317    -3     3    -3   0.11266   0.19118   0.00818   8.45270   0.10446  89.19025       30683.00       47524.82     1.24070     1.24343    92.90224     0.18733     0.00000   992.01837   992.01837
     7     1026.45142      909.49762    -5     3    -1  -0.29056   0.25975   0.01444  14.49309   0.09197  55.43417         474.00        1420.82     1.17437     1.46714   176.96162     0.06961     0.00000    61.98571    61.98571
     6      924.97076      683.00476    -6     4    -2   0.11607   0.04109   0.00541  16.08264   0.07268  64.06209       40715.00      108256.81     1.71931     1.78089    62.01914     0.25364     0.00000   925.35260   925.35260
    36       61.81757      407.70038    -1     3    -3   0.23603   0.28477   0.01256   7.85974   0.12446  78.64925           0.00           0.00     0.00000     0.00000     0.00000     0.00000     0.00000     0.00000     0.00000
     4      426.62766      666.11377    -3     5    -3   0.45176  -0.13181   0.02494  14.35956   0.08292  62.75164       58353.00      195797.81     1.80663     1.87440    12.00903     0.22888     0.00000   546.37982   546.37982
    14      648.66693      500.22632    -6     6    -4   0.16447   0.01661   0.00857  18.19115   0.05795  72.04452       13642.00       24202.82     1.21324     1.46268     4.25373     0.18975     0.00000   258.92953   258.92953
     8      668.66693      570.50073    -5     5    -3   0.10642  -0.03714   0.00575  15.64158   0.07079  68.09216       39409.00      186782.81     1.90484     2.81769   175.30247     0.30559     0.00000   426.84482   426.84482
    11      868.10571      257.28891    -5     3    -3   0.08196   0.21713   0.00744  10.82855   0.08280  87.48650       21002.00       59795.82     1.81036     1.84834   145.86739     0.21742     0.00000   868.37933   868.37933
    10      331.59048      270.35703    -4     6    -6  -0.49656  -0.03430   0.02246  15.68226   0.05785  86.21149       54748.00       81674.81     1.08494     1.53208     0.07064     0.19293     0.00000   669.00293   669.00293
     9      282.61102      288.45813    -3     5    -5  -0.42219  -0.02541   0.01874  12.97642   0.07065  85.10136       22478.00       46600.82     1.08977     1.86678     0.03438     0.19130     0.00000   649.00665   649.00665
    19      258.61691      619.58984    -3     7    -5  -0.05687  -0.38912   0.01077  19.09080   0.05964  65.98114       19571.00       38345.82     1.23828     1.67861     7.13013     0.23413     0.00000   129.72064   129.72064
    17      858.87854      567.51013    -7     5    -3   0.16374  -0.27216   0.01099  18.24908   0.05968  69.39195        8062.00       20245.82     1.08797     1.94890     0.02226     0.30206     0.00000   464.01041   464.01041
    31      475.00085      454.82159    -6     8    -6   0.03868   0.06848   0.00292  21.96824   0.04659  74.55634         505.00        2159.82     1.28775     1.95050   174.02509     0.09994     0.00000   699.01111   699.01111
    20      463.66925      498.16898    -5     7    -5   0.35517  -0.14006   0.01900  19.31485   0.05462  71.98228       13945.00       27932.82     1.16955     1.70954   177.77274     0.22061     0.00000   439.06903   439.06903
    22      721.85431      228.63705    -8     6    -6   0.05888   0.02836   0.00279  18.98010   0.04655  89.11490       23308.00       34433.82     1.16280     1.28284   178.98253     0.19420     0.00000   753.86719   753.86719
    15      129.38751       39.61986    -3     5    -7  -0.22012   0.22517   0.01024  13.61995   0.05948  99.85720       14087.00       31538.82     1.54899     1.59584    71.82976     0.22418     0.00000   859.20935   859.20935
    18      438.69913       20.95398    -6     6    -8   0.43426   0.31734   0.01999  17.13934   0.04649 102.16051        9393.00       18755.82     1.23057     1.53069   177.74554     0.21400     0.00000   722.14716   722.14716
    30     1012.69312      601.56293    -9     5    -3   0.03047  -0.15381   0.00417  21.60183   0.05069  68.95989        5274.00        9180.82     1.11750     1.34114   176.88228     0.15252     0.00000   262.01498   262.01498
    16      753.58893      232.69276    -7     5    -5  -0.31541   0.20163   0.01526  16.22786   0.05456  88.87469         953.00        3300.82     1.51397     1.76820   173.11101     0.11248     0.00000   475.06409   475.06409
    21      145.61069      355.19611    -3     7    -7  -0.05027  -0.03576   0.00237  18.13758   0.05245  81.32981        1247.00        3425.82     1.31630     1.56012   171.16740     0.11085     0.00000  1013.01141  1013.01141
    23      364.75369      259.68243    -5     7    -7  -0.04228  -0.08338   0.00331  18.42372   0.04893  86.88890        7337.00       19219.82     1.24651     1.90346   179.12312     0.17824     0.00000   145.90764   145.90764
    29      784.11554       52.58156   -10     6    -8  -0.01424  -0.12775   0.00396  21.07596   0.03835 100.15141        4025.00       11528.82     1.48715     1.87099    60.41110     0.20808     0.00000   823.12878   823.12878
    33      300.68103       92.97010    -6     8   -10  -0.06714   0.03493   0.00292  21.53309   0.03834  97.34200         677.00        2555.82     1.33139     1.71809    12.80014     0.11503     0.00000   972.00861   972.00861
    25      919.93176      273.29782    -9     5    -5   0.11167  -0.08407   0.00515  19.04877   0.04744  86.63170         905.00        3874.82     1.46940     1.81944   168.02219     0.14680     0.00000   784.11121   784.11121
    26       27.58389      162.45049    -3     7    -9   0.30746   0.01450   0.01034  18.66319   0.04597  92.52890         837.00        2500.82     1.12462     1.76471   176.89371     0.10044     0.00000   301.03030   301.03030
    24      822.87146       31.37961    -9     5    -7   0.18795  -0.13703   0.00796  18.39836   0.04356 101.32984       10074.00       16609.82     1.19622     1.30263     2.78372     0.18036     0.00000   365.10873   365.10873
    27      261.67944       78.66423    -5     7    -9  -0.07060  -0.05546   0.00318  18.84892   0.04354  98.10717        3625.00       11374.82     1.65833     1.84535    18.37142     0.18407     0.00000   920.17090   920.17090
    35      698.73566      226.35321    -9     7    -7   0.06479  -0.11059   0.00458  21.74925   0.04058  89.25026           0.00           0.00     0.00000     0.00000     0.00000     0.00000     0.00000     0.00000     0.00000
    28      454.66586       47.75854    -7     7    -9   0.00786   0.02515   0.00085  19.88918   0.04053 100.54049        4151.00        9885.82     1.37417     1.69304   170.27695     0.16565     0.00000    27.93229    27.93229
    32      971.57483       85.61616   -11     5    -7  -0.36147  -0.34863   0.01649  21.19110   0.03885  97.70777        2817.00        5906.82     1.07710     1.46999   179.03572     0.15428     0.00000   454.99637   454.99637
latticeparameters=   0.54324   0.54485   0.54093  89.94844  90.19390  90.25804
dpsx, dpsy: 179.00000 168.38699
dd, xcent, ycent:      150.57201      540.60303      212.87601
pitch,yaw,roll:  -0.22645   0.61642   0.00000
dev1, dev2, pixdev:   0.01235   0.01219   0.25830
deviatoric strain in crystal reference u1 u2 u3 (*10^3)
   0.43507  -2.25949  -1.68565
  -2.25949   3.39146   0.44069
  -1.68565   0.44069  -3.81341
deviatoric strain in sample reference X Y Z (*10^3)
  -0.27075  -0.86153   0.48125
  -0.86153   4.63574   0.18068
   0.48125   0.18068  -4.35187
deviatoric principal strains (*10^3):   4.78366  -0.35393  -4.41661
deviatoric strain principal axes in sample reference:
  -0.16703   0.98589   0.01070
   0.97841   0.16440   0.12521
  -0.12168  -0.03138   0.99207
deviatoric stress in crystal reference u1 u2 u3 (MPa)
       45.08568     -359.30353     -268.05133
     -359.30353      345.75092       70.07813
     -268.05133       70.07813     -386.98495
deviatoric stress in sample reference X Y Z (MPa)
      -39.06278     -199.34508      -28.72494
     -199.34508      568.49402       22.18436
      -28.72494       22.18436     -525.57959
deviatoric principal stresses (MPa):      628.81409      -97.58530     -527.37714
deviatoric stress principal axes in sample reference:
       -0.28692        0.95761        0.02554
       -0.95640       -0.28787        0.04927
        0.05453       -0.01029        0.99846
total strain in sample reference X Y Z (*10^3)
   1.51986  -0.86153   0.48125
  -0.86153   6.42635   0.18068
   0.48125   0.18068  -2.56126
total principal strains (*10^3):   6.57427   1.43668  -2.62601
total strain principal axes in sample reference:
  -0.16703   0.98589   0.01070
   0.97841   0.16440   0.12521
  -0.12168  -0.03138   0.99207
total stress in crystal reference u1 u2 u3 (MPa)
      570.66528     -359.30353     -268.05133
     -359.30353      871.33051       70.07813
     -268.05133       70.07813      138.59467
total stress in sample reference X Y Z (MPa)
      486.51682     -199.34508      -28.72494
     -199.34508     1094.07361       22.18436
      -28.72494       22.18436        0.00000
total principal stresses (MPa):     1154.39368      427.99429       -1.79754
total stress principal axes in sample reference:
       -0.28692        0.95761        0.02554
       -0.95640       -0.28787        0.04927
        0.05453       -0.01029        0.99846
dilatational strain (*10^-3):        1.79061
hydrostatic stress (MPa):      526.86346
Von Mises stress (MPa):     1012.21423
equivalent strain (*10^-3):        5.32385
equivalent stress (MPa):     1012.21423
maximum resolved shear stress:       15.39508
coordinates of a, b, c in X, Y, Z
   0.44441  -0.20243   0.23851
   0.19252   0.50580   0.06498
  -0.24574   0.03226   0.48108
coordinates of a*, b*, c* in X, Y, Z
   1.50607  -0.67792   0.81478
   0.65603   1.70069   0.22107
  -0.83530   0.10640   1.64667
