\\vmware-host\Shared Folders\Desktop\SiHyperlaueFinal_shielded_results\results_00040.STR
Number of grains:       1
Grain no:       1   Grainlist file index:       1    Number of peaks:      33
no   x(exp)  y(exp)  h  k  l xdev  ydev  angdev  energy  dspace  twotheta  intens   integr  xwidth   ywidth  tilt  rfactor   pearson  xcentroid  ycentroid
     2      392.62354      871.98547    -2     4    -2  -0.32497  -0.10500   0.01883  12.44759   0.11105  53.29148       59683.00      205196.05     1.79696     2.06179   178.08141     0.21459     0.00000   746.61658   746.61658
     5      746.30194      951.29706    -3     3    -1  -0.32866   0.52975   0.02132  11.59359   0.12490  50.69581       49081.00      127650.05     1.67019     1.87137   100.52359     0.19668     0.00000  1026.74292  1026.74292
    13      991.66858      299.62228    -4     2    -2   0.10113  -0.04200   0.00405   8.25874   0.11084  85.25734       49276.00       85224.05     1.23380     1.55666   179.02859     0.22829     0.00000   282.87238   282.87238
     3      546.02631      225.14743    -3     3    -3   0.12224   0.19814   0.00865   8.45281   0.10446  89.18952       38895.00       59002.05     1.23154     1.23863   171.84846     0.18433     0.00000   992.00708   992.00708
     6     1026.42297      909.53021    -5     3    -1  -0.27819   0.26609   0.01398  14.49344   0.09197  55.43245       46174.00      123109.05     1.59373     1.95993   112.88386     0.24579     0.00000   925.33606   925.33606
     7      924.97552      683.05518    -6     4    -2   0.09675   0.01787   0.00449  16.08292   0.07268  64.06063        1041.00        2269.05     1.15297     1.44455     2.61868     0.07811     0.00000    62.02573    62.02573
    35       61.80174      407.68634    -1     3    -3   0.24634   0.29424   0.01305   7.85970   0.12446  78.64953           0.00           0.00     0.00000     0.00000     0.00000     0.00000     0.00000     0.00000     0.00000
     4      426.61322      666.12836    -3     5    -3   0.46183  -0.13033   0.02548  14.35953   0.08292  62.75082       81000.00      264581.06     1.78824     1.87247     0.84359     0.23130     0.00000   546.37262   546.37262
    14      648.66681      500.24600    -6     6    -4   0.15690   0.01417   0.00818  18.19131   0.05795  72.04348       14591.00       25652.05     1.22402     1.46147     4.68393     0.18651     0.00000   258.91605   258.91605
     8      668.66693      570.51611    -5     5    -3   0.09914  -0.03238   0.00535  15.64172   0.07079  68.09101       48387.00      219775.05     1.89999     2.74176   175.30258     0.30521     0.00000   426.82111   426.82111
     9      868.07465      257.32748    -5     3    -3   0.09169   0.19557   0.00707  10.82875   0.08280  87.48543       24880.00       50362.05     1.08910     1.85506     0.03348     0.19526     0.00000   649.00220   649.00220
    11      331.58670      270.36093    -4     6    -6  -0.49776  -0.03358   0.02251  15.68235   0.05785  86.21120       32500.00       87672.05     1.65772     1.93784   147.89627     0.22547     0.00000   868.38184   868.38184
    10      282.60797      288.47064    -3     5    -5  -0.42379  -0.03496   0.01883  12.97647   0.07065  85.10118       62985.00       92485.05     1.08408     1.50679   179.94054     0.19221     0.00000   668.99878   668.99878
    19      258.61267      619.59216    -3     7    -5  -0.05798  -0.38457   0.01067  19.09066   0.05964  65.98081       23787.00       46599.05     1.24306     1.68894     7.21732     0.23865     0.00000   129.69653   129.69653
    17      858.85492      567.53064    -7     5    -3   0.17377  -0.27028   0.01131  18.24936   0.05968  69.39064        8962.00       22284.05     1.08679     1.94644   179.89998     0.30343     0.00000   464.00708   464.00708
    31      475.00662      454.87292    -6     8    -6   0.02743   0.02813   0.00167  21.96831   0.04659  74.55567         556.00        2209.05     1.22852     2.05812     1.25916     0.09215     0.00000   699.00012   699.00012
    20      463.66895      498.15912    -5     7    -5   0.35032  -0.11860   0.01864  19.31489   0.05462  71.98160       15248.00       31218.05     1.17499     1.73981   177.55540     0.22384     0.00000   439.08304   439.08304
    22      721.84137      228.64272    -8     6    -6   0.05726   0.03787   0.00283  18.98042   0.04655  89.11392       26099.00       39056.05     1.17693     1.29534   178.96771     0.20070     0.00000   753.86121   753.86121
    15      129.37961       39.61840    -3     5    -7  -0.21364   0.22853   0.01014  13.62014   0.05948  99.85708       16270.00       34812.05     1.45693     1.58253    26.48684     0.22716     0.00000   859.19501   859.19501
    18      438.70148       20.97909    -6     6    -8   0.42392   0.30402   0.01943  17.13968   0.04649 102.15976       10135.00       19980.05     1.22260     1.50309   179.09882     0.21806     0.00000   722.15070   722.15070
    30     1012.69232      601.59467    -9     5    -3   0.01001  -0.16322   0.00415  21.60222   0.05069  68.95857        5923.00       10141.05     1.11912     1.34834   176.95837     0.15274     0.00000   262.00522   262.00522
    16      753.58368      232.69907    -7     5    -5  -0.32603   0.21103   0.01581  16.22814   0.05456  88.87367         999.00        3479.05     1.60281     1.74499   172.73019     0.11416     0.00000   475.03271   475.03271
    21      145.60704      355.19839    -3     7    -7  -0.05136  -0.03978   0.00247  18.13755   0.05245  81.32992        1412.00        3679.05     1.33083     1.52078   172.40311     0.11038     0.00000  1012.99585  1012.99585
    23      364.75098      259.68732    -5     7    -7  -0.04489  -0.08254   0.00336  18.42384   0.04893  86.88853        7888.00       20612.05     1.25498     1.89665   179.33130     0.18442     0.00000   145.91661   145.91661
    29      784.10059       52.59397   -10     6    -8  -0.02160  -0.12113   0.00382  21.07645   0.03835 100.15030        4523.00       12768.05     1.44704     1.71149    27.97173     0.24612     0.00000   823.11603   823.11603
    32      300.68863       93.00631    -6     8   -10  -0.07929   0.00458   0.00319  21.53339   0.03834  97.34162        2916.00        6277.05     1.08029     1.50422     0.81090     0.16342     0.00000   455.00708   455.00708
    25      919.90656      273.32364    -9     5    -5   0.11274  -0.09261   0.00531  19.04913   0.04744  86.63062        1011.00        4087.05     1.46857     1.82483   169.75069     0.14442     0.00000   784.04700   784.04700
    26       27.57218      162.43210    -3     7    -9   0.31711   0.02867   0.01068  18.66332   0.04597  92.52913         886.00        2579.05     1.14080     1.79975   176.91074     0.09961     0.00000   301.01999   301.01999
    24      822.82184       31.43271    -9     5    -7   0.21211  -0.16984   0.00921  18.39881   0.04356 101.32871       10777.00       17791.05     1.20648     1.29759     1.03933     0.18308     0.00000   365.11017   365.11017
    27      261.67953       78.66095    -5     7    -9  -0.07456  -0.04718   0.00319  18.84918   0.04354  98.10685        4058.00       12370.05     1.61888     1.81463    20.85435     0.20149     0.00000   920.15802   920.15802
    36      698.72113      226.37350    -9     7    -7   0.06566  -0.11612   0.00475  21.74960   0.04058  89.24930           0.00           0.00     0.00000     0.00000     0.00000     0.00000     0.00000     0.00000     0.00000
    28      454.66711       47.77069    -7     7    -9  -0.00160   0.02449   0.00077  19.88955   0.04053 100.53975        4425.00       10973.05     1.39466     1.71361   169.35944     0.17950     0.00000    27.91807    27.91807
    33      971.51923       85.56097   -11     5    -7  -0.34053  -0.27309   0.01455  21.19160   0.03885  97.70670         660.00        2514.05     1.45155     1.63538    16.70353     0.11443     0.00000   971.98590   971.98590
latticeparameters=   0.54324   0.54487   0.54091  89.94911  90.19554  90.25771
dpsx, dpsy: 179.00000 168.38699
dd, xcent, ycent:      150.57201      540.60303      212.87601
pitch,yaw,roll:  -0.22645   0.61642   0.00000
dev1, dev2, pixdev:   0.01230   0.01207   0.25487
deviatoric strain in crystal reference u1 u2 u3 (*10^3)
   0.43347  -2.25669  -1.69982
  -2.25669   3.43383   0.43473
  -1.69982   0.43473  -3.85388
deviatoric strain in sample reference X Y Z (*10^3)
  -0.26066  -0.84488   0.49033
  -0.84488   4.66979   0.18443
   0.49033   0.18443  -4.39570
deviatoric principal strains (*10^3):   4.81167  -0.33638  -4.46187
deviatoric strain principal axes in sample reference:
  -0.16325   0.98652   0.01107
   0.97900   0.16060   0.12555
  -0.12208  -0.03133   0.99203
deviatoric stress in crystal reference u1 u2 u3 (MPa)
       44.94218     -358.85944     -270.30563
     -358.85944      350.07901       69.13012
     -270.30563       69.13012     -391.08173
deviatoric stress in sample reference X Y Z (MPa)
      -37.21892     -197.58588      -28.28667
     -197.58588      571.86597       22.59818
      -28.28667       22.59818     -530.70758
deviatoric principal stresses (MPa):      631.10681      -94.71926     -532.44806
deviatoric stress principal axes in sample reference:
       -0.28441        0.95836        0.02557
       -0.95726       -0.28535        0.04732
        0.05264       -0.01102        0.99855
total strain in sample reference X Y Z (*10^3)
   1.54741  -0.84488   0.49033
  -0.84488   6.47787   0.18443
   0.49033   0.18443  -2.58762
total principal strains (*10^3):   6.61975   1.47170  -2.65379
total strain principal axes in sample reference:
  -0.16325   0.98652   0.01107
   0.97900   0.16060   0.12555
  -0.12208  -0.03133   0.99203
total stress in crystal reference u1 u2 u3 (MPa)
      575.64978     -358.85944     -270.30563
     -358.85944      880.78662       69.13012
     -270.30563       69.13012      139.62585
total stress in sample reference X Y Z (MPa)
      493.48865     -197.58588      -28.28667
     -197.58588     1102.57361       22.59818
      -28.28667       22.59818        0.00000
total principal stresses (MPa):     1161.81445      435.98831       -1.74047
total stress principal axes in sample reference:
       -0.28441        0.95836        0.02557
       -0.95726       -0.28535        0.04732
        0.05264       -0.01102        0.99855
dilatational strain (*10^-3):        1.80808
hydrostatic stress (MPa):      532.02075
Von Mises stress (MPa):     1017.91205
equivalent strain (*10^-3):        5.36492
equivalent stress (MPa):     1017.91205
maximum resolved shear stress:       14.11979
coordinates of a, b, c in X, Y, Z
   0.44440  -0.20245   0.23850
   0.19254   0.50581   0.06500
  -0.24574   0.03224   0.48105
coordinates of a*, b*, c* in X, Y, Z
   1.50604  -0.67798   0.81477
   0.65602   1.70060   0.22115
  -0.83531   0.10634   1.64674
