\\vmware-host\Shared Folders\Desktop\SiHyperlaueFinal_shielded_results\results_00065.STR
Number of grains:       1
Grain no:       1   Grainlist file index:       1    Number of peaks:      33
no   x(exp)  y(exp)  h  k  l xdev  ydev  angdev  energy  dspace  twotheta  intens   integr  xwidth   ywidth  tilt  rfactor   pearson  xcentroid  ycentroid
     2      392.62802      871.97308    -2     4    -2  -0.32453  -0.11556   0.01885  12.44818   0.11104  53.29241       43367.00      151112.61     1.78125     2.07080   178.61836     0.20532     0.00000   746.64197   746.64197
     5      746.31805      951.25616    -3     3    -1  -0.34224   0.53411   0.02203  11.59375   0.12490  50.69722       42163.00      109334.61     1.60854     1.93251   132.41872     0.19292     0.00000  1026.76025  1026.76025
    13      991.67676      299.61847    -4     2    -2   0.12584  -0.06091   0.00513   8.25863   0.11084  85.25874       39416.00       68629.61     1.22681     1.57070   179.33138     0.22232     0.00000   282.88174   282.88174
     3      546.04321      225.14713    -3     3    -3   0.10917   0.18684   0.00797   8.45292   0.10446  89.19028       30896.00       47620.61     1.23783     1.24108   112.63558     0.18568     0.00000   992.02405   992.02405
     7     1026.43567      909.50385    -5     3    -1  -0.27146   0.26807   0.01372  14.49339   0.09197  55.43365         442.00        1394.61     1.19889     1.53268   178.74525     0.06606     0.00000    62.01439    62.01439
     6      924.99841      683.03406    -6     4    -2   0.08905   0.01767   0.00413  16.08293   0.07268  64.06182       41421.00      110218.61     1.73265     1.83427    60.76986     0.24518     0.00000   925.34406   925.34406
    36       61.84539      407.70428    -1     3    -3   0.21506   0.28306   0.01189   7.86010   0.12446  78.64910           0.00           0.00     0.00000     0.00000     0.00000     0.00000     0.00000     0.00000     0.00000
     4      426.62491      666.11835    -3     5    -3   0.45352  -0.13179   0.02503  14.36017   0.08292  62.75141       58603.00      197358.61     1.80529     1.87482    11.82446     0.22981     0.00000   546.37390   546.37390
    14      648.66711      500.22137    -6     6    -4   0.16071   0.02436   0.00839  18.19166   0.05795  72.04434       13743.00       24058.61     1.21809     1.44889     4.73039     0.18632     0.00000   258.92371   258.92371
     8      668.66675      570.50104    -5     5    -3   0.10323  -0.03370   0.00557  15.64202   0.07079  68.09194       39994.00      187633.61     1.90214     2.80434   175.38351     0.30611     0.00000   426.84399   426.84399
    11      868.09998      257.29773    -5     3    -3   0.08764   0.20303   0.00718  10.82865   0.08280  87.48682       21466.00       60399.61     1.77606     1.87071   159.48567     0.21855     0.00000   868.37207   868.37207
    10      331.58853      270.35245    -4     6    -6  -0.49711  -0.02667   0.02247  15.68284   0.05785  86.21130       55040.00       82233.61     1.08473     1.53486     0.17136     0.19240     0.00000   669.00317   669.00317
     9      282.61057      288.46442    -3     5    -5  -0.42307  -0.02823   0.01879  12.97693   0.07064  85.10114       22449.00       46731.61     1.08919     1.86782   179.98016     0.19211     0.00000   649.01996   649.01996
    19      258.61469      619.59393    -3     7    -5  -0.05177  -0.39045   0.01072  19.09170   0.05963  65.98097       19603.00       38965.61     1.24338     1.69553     7.06624     0.23271     0.00000   129.71605   129.71605
    17      858.87769      567.51239    -7     5    -3   0.16372  -0.27163   0.01098  18.24941   0.05968  69.39179        8322.00       20556.61     1.08622     1.94855   179.97786     0.30174     0.00000   464.01337   464.01337
    31      474.98584      454.84128    -6     8    -6   0.05073   0.05240   0.00310  21.96903   0.04659  74.55612         534.00        1994.61     1.23250     1.91357     0.15066     0.09097     0.00000   699.01013   699.01013
    20      463.66904      498.15936    -5     7    -5   0.35282  -0.12643   0.01881  19.31557   0.05461  71.98204       13810.00       27754.61     1.17159     1.72468   177.64433     0.21713     0.00000   439.08353   439.08353
    22      721.84833      228.63852    -8     6    -6   0.06136   0.02334   0.00284  18.98041   0.04655  89.11512       23353.00       34477.61     1.16573     1.27906   178.97427     0.19465     0.00000   753.87097   753.87097
    15      129.37592       39.61872    -3     5    -7  -0.21079   0.22887   0.01007  13.62046   0.05948  99.85704       14357.00       32085.61     1.56201     1.58119    33.51960     0.22458     0.00000   859.20490   859.20490
    18      438.70065       20.96506    -6     6    -8   0.42611   0.30368   0.01951  17.13978   0.04649 102.16065        9356.00       18555.61     1.23064     1.52209   177.83430     0.21029     0.00000   722.17206   722.17206
    30     1012.71729      601.57202    -9     5    -3   0.01025  -0.15888   0.00404  21.60209   0.05069  68.95973        5345.00        9287.61     1.11485     1.37013   179.02063     0.14717     0.00000   262.03665   262.03665
    16      753.58966      232.69366    -7     5    -5  -0.31908   0.19671   0.01534  16.22810   0.05456  88.87494         988.00        3372.61     1.54675     1.77005   171.26144     0.11204     0.00000   475.05087   475.05087
    21      145.60968      355.19391    -3     7    -7  -0.04607  -0.03014   0.00213  18.13838   0.05245  81.32960        1245.00        3447.61     1.33926     1.59672   172.11343     0.10890     0.00000  1013.02838  1013.02838
    23      364.75787      259.68597    -5     7    -7  -0.04963  -0.08427   0.00354  18.42437   0.04893  86.88873        7327.00       19284.61     1.25483     1.89991   179.27988     0.17806     0.00000   145.92915   145.92915
    29      784.13397       52.53239   -10     6    -8  -0.03497  -0.08851   0.00308  21.07616   0.03835 100.15202        3969.00       11693.61     1.47926     1.87222    80.11407     0.21055     0.00000   823.11053   823.11053
    32      300.67963       93.00171    -6     8   -10  -0.07019   0.00462   0.00282  21.53380   0.03834  97.34190        2865.00        6102.61     1.08499     1.49831     0.44056     0.15512     0.00000   454.99881   454.99881
    25      919.92242      273.28830    -9     5    -5   0.12269  -0.08008   0.00548  19.04892   0.04744  86.63203         883.00        4034.61     1.64516     1.88238    82.61860     0.14795     0.00000   784.09180   784.09180
    26       27.57069      162.44591    -3     7    -9   0.32387   0.02269   0.01090  18.66398   0.04597  92.52870         813.00        2533.61     1.12578     1.81206   179.34985     0.10173     0.00000   300.99078   300.99078
    24      822.87659       31.37281    -9     5    -7   0.18173  -0.14186   0.00783  18.39850   0.04356 101.33054       10030.00       16590.61     1.20140     1.31431     1.26017     0.17821     0.00000   365.10864   365.10864
    27      261.67825       78.65842    -5     7    -9  -0.07351  -0.04804   0.00317  18.84956   0.04354  98.10706        3667.00       11642.61     1.64299     1.84401    18.77119     0.19321     0.00000   920.12634   920.12634
    35      698.72668      226.35788    -9     7    -7   0.06991  -0.11843   0.00492  21.74963   0.04058  89.25046           0.00           0.00     0.00000     0.00000     0.00000     0.00000     0.00000     0.00000     0.00000
    28      454.66568       47.75105    -7     7    -9   0.00169   0.03036   0.00095  19.88968   0.04053 100.54062        4079.00       10166.61     1.39535     1.69097   166.77292     0.18061     0.00000    27.91179    27.91179
    33      971.54913       85.57478   -11     5    -7  -0.33101  -0.32010   0.01512  21.19116   0.03885  97.70850         661.00        2502.61     1.41872     1.72257    21.16044     0.11099     0.00000   971.98285   971.98285
latticeparameters=   0.54325   0.54483   0.54093  89.94801  90.19266  90.25827
dpsx, dpsy: 179.00000 168.38699
dd, xcent, ycent:      150.57201      540.60303      212.87601
pitch,yaw,roll:  -0.22645   0.61642   0.00000
dev1, dev2, pixdev:   0.01222   0.01201   0.25389
deviatoric strain in crystal reference u1 u2 u3 (*10^3)
   0.46703  -2.26141  -1.67488
  -2.26141   3.36264   0.44443
  -1.67488   0.44443  -3.81662
deviatoric strain in sample reference X Y Z (*10^3)
  -0.26395  -0.88117   0.49898
  -0.88117   4.61667   0.17105
   0.49898   0.17105  -4.33967
deviatoric principal strains (*10^3):   4.77164  -0.35016  -4.40843
deviatoric strain principal axes in sample reference:
  -0.17149   0.98514   0.00910
   0.97710   0.16889   0.12945
  -0.12599  -0.03109   0.99154
deviatoric stress in crystal reference u1 u2 u3 (MPa)
       48.33200     -359.60980     -266.33945
     -359.60980      342.81467       70.67393
     -266.33945       70.67393     -387.31567
deviatoric stress in sample reference X Y Z (MPa)
      -38.96090     -201.36789      -26.56534
     -201.36789      566.61847       21.14949
      -26.56534       21.14949     -523.82654
deviatoric principal stresses (MPa):      628.14148      -98.93092     -525.37958
deviatoric stress principal axes in sample reference:
       -0.28978        0.95679        0.02425
       -0.95577       -0.29062        0.04529
        0.05038       -0.01005        0.99868
total strain in sample reference X Y Z (*10^3)
   1.52068  -0.88117   0.49898
  -0.88117   6.40131   0.17105
   0.49898   0.17105  -2.55503
total principal strains (*10^3):   6.55628   1.43448  -2.62380
total strain principal axes in sample reference:
  -0.17149   0.98514   0.00910
   0.97710   0.16889   0.12945
  -0.12599  -0.03109   0.99154
total stress in crystal reference u1 u2 u3 (MPa)
      572.15851     -359.60980     -266.33945
     -359.60980      866.64117       70.67393
     -266.33945       70.67393      136.51086
total stress in sample reference X Y Z (MPa)
      484.86563     -201.36789      -26.56534
     -201.36789     1090.44495       21.14949
      -26.56534       21.14949        0.00000
total principal stresses (MPa):     1151.96790      424.89566       -1.55302
total stress principal axes in sample reference:
       -0.28978        0.95679        0.02425
       -0.95577       -0.29062        0.04529
        0.05038       -0.01005        0.99868
dilatational strain (*10^-3):        1.78464
hydrostatic stress (MPa):      525.10352
Von Mises stress (MPa):     1010.22363
equivalent strain (*10^-3):        5.31196
equivalent stress (MPa):     1010.22363
maximum resolved shear stress:       17.45686
coordinates of a, b, c in X, Y, Z
   0.44444  -0.20243   0.23853
   0.19251   0.50580   0.06497
  -0.24574   0.03226   0.48109
coordinates of a*, b*, c* in X, Y, Z
   1.50610  -0.67787   0.81475
   0.65605   1.70081   0.22104
  -0.83533   0.10641   1.64672
