\\vmware-host\Shared Folders\Desktop\SiHyperlaueFinal_shielded_results\results_00076.STR
Number of grains:       1
Grain no:       1   Grainlist file index:       1    Number of peaks:      33
no   x(exp)  y(exp)  h  k  l xdev  ydev  angdev  energy  dspace  twotheta  intens   integr  xwidth   ywidth  tilt  rfactor   pearson  xcentroid  ycentroid
     1      392.63202      871.96979    -2     4    -2  -0.32047  -0.11643   0.01862  12.44769   0.11105  53.29255      117134.00      231315.95     1.17080     1.87398     2.18956     0.18672     0.00000   392.89893   392.89893
     5      746.33704      951.25079    -3     3    -1  -0.34883   0.53596   0.02238  11.59344   0.12490  50.69745       41863.00      107496.95     1.73607     1.77273   128.58121     0.20954     0.00000  1026.76636  1026.76636
    13      991.67780      299.61621    -4     2    -2   0.11982  -0.05739   0.00488   8.25861   0.11084  85.25865       39567.00       68206.95     1.22326     1.56298   179.26251     0.22142     0.00000   282.87909   282.87909
     3      546.05151      225.14291    -3     3    -3   0.10517   0.19132   0.00796   8.45279   0.10446  89.19026       30690.00       47327.95     1.24156     1.24290    99.69990     0.18487     0.00000   992.01849   992.01849
     7     1026.45325      909.49738    -5     3    -1  -0.28208   0.26798   0.01416  14.49317   0.09197  55.43400         440.00        1386.95     1.17442     1.55544   178.88953     0.06632     0.00000    62.00054    62.00054
     6      924.99585      683.01691    -6     4    -2   0.09803   0.03125   0.00457  16.08271   0.07268  64.06205       41133.00      108131.95     1.61606     1.93296    11.97949     0.25278     0.00000   925.34631   925.34631
    36       61.85921      407.70157    -1     3    -3   0.20057   0.28378   0.01149   7.85986   0.12446  78.64921           0.00           0.00     0.00000     0.00000     0.00000     0.00000     0.00000     0.00000     0.00000
     4      426.63095      666.11615    -3     5    -3   0.45528  -0.13483   0.02513  14.35967   0.08292  62.75165       57938.00      195464.95     1.81192     1.87330    10.91963     0.22919     0.00000   546.37921   546.37921
    14      648.66724      500.22159    -6     6    -4   0.16839   0.02119   0.00878  18.19128   0.05795  72.04454       13715.00       24059.95     1.21013     1.46213     4.15915     0.18560     0.00000   258.92245   258.92245
     8      668.66699      570.50031    -5     5    -3   0.11165  -0.03632   0.00602  15.64168   0.07079  68.09216       39556.00      187572.95     1.90398     2.83061   175.31226     0.30645     0.00000   426.84805   426.84805
    12      868.11023      257.28708    -5     3    -3   0.07631   0.21582   0.00730  10.82860   0.08280  87.48669       29861.00       63059.95     1.27704     1.74328   178.35242     0.23995     0.00000   331.85291   331.85291
    10      331.59158      270.36002    -4     6    -6  -0.49614  -0.03619   0.02244  15.68248   0.05785  86.21142       54201.00       80991.95     1.08482     1.53211     0.07424     0.19391     0.00000   669.00189   669.00189
     9      282.61182      288.46780    -3     5    -5  -0.42079  -0.03391   0.01870  12.97661   0.07064  85.10128       22384.00       46717.95     1.08936     1.86566   179.96397     0.19395     0.00000   649.01343   649.01343
    19      258.61777      619.58984    -3     7    -5  -0.05077  -0.39100   0.01072  19.09099   0.05964  65.98119       19609.00       38738.95     1.23878     1.69298     6.98441     0.23340     0.00000   129.70679   129.70679
    17      858.87640      567.50928    -7     5    -3   0.17108  -0.27094   0.01123  18.24917   0.05968  69.39197        8251.00       20407.95     1.08971     1.94519     0.02267     0.30165     0.00000   464.01093   464.01093
    31      475.01648      454.82953    -6     8    -6   0.02695   0.06023   0.00232  21.96844   0.04659  74.55635         480.00        2268.95     1.28903     2.06606     7.87803     0.10575     0.00000   699.01782   699.01782
    20      463.66937      498.15619    -5     7    -5   0.35963  -0.12764   0.01916  19.31502   0.05462  71.98229       13756.00       27861.95     1.17249     1.72661   177.72179     0.21927     0.00000   439.07510   439.07510
    22      721.85669      228.63457    -8     6    -6   0.05522   0.02912   0.00264  18.98025   0.04655  89.11501       23421.00       34290.95     1.16518     1.27014   178.93916     0.19093     0.00000   753.87311   753.87311
    15      129.37709       39.62002    -3     5    -7  -0.21042   0.23118   0.01011  13.62023   0.05948  99.85684       14189.00       31798.95     1.48972     1.62756    17.64802     0.22466     0.00000   859.19727   859.19727
    18      438.70160       20.96462    -6     6    -8   0.42713   0.30915   0.01962  17.13960   0.04649 102.16034        9309.00       18650.95     1.24080     1.53745   177.42496     0.21175     0.00000   722.14972   722.14972
    30     1012.70673      601.59052    -9     5    -3   0.02270  -0.18107   0.00472  21.60190   0.05069  68.95993        5162.00        9149.95     1.11739     1.37878   179.21878     0.15105     0.00000   262.01657   262.01657
    16      753.59412      232.69351    -7     5    -5  -0.32191   0.19886   0.01549  16.22798   0.05456  88.87481         981.00        3174.95     1.50367     1.77193   174.36308     0.10599     0.00000   475.03598   475.03598
    21      145.60953      355.19513    -3     7    -7  -0.04462  -0.03391   0.00213  18.13786   0.05245  81.32974        1222.00        3516.95     1.38630     1.56127   165.95790     0.11381     0.00000  1013.00305  1013.00305
    23      364.75604      259.68729    -5     7    -7  -0.04354  -0.08725   0.00345  18.42397   0.04893  86.88884        7201.00       18799.95     1.25020     1.90144   179.37692     0.17516     0.00000   145.91599   145.91599
    29      784.09015       52.57955   -10     6    -8   0.00491  -0.12841   0.00391  21.07613   0.03835 100.15158        3974.00       11408.95     1.47123     1.85711    75.78986     0.20613     0.00000   823.11200   823.11200
    33      300.68530       93.00556    -6     8   -10  -0.07313   0.00280   0.00294  21.53346   0.03834  97.34179         664.00        2580.95     1.40978     1.72555    14.25318     0.11367     0.00000   971.98596   971.98596
    24      919.92334      273.27109    -9     5    -5   0.11918  -0.06094   0.00512  19.04886   0.04744  86.63191        9832.00       16280.95     1.20371     1.30926     1.00685     0.17781     0.00000   365.10995   365.10995
    26       27.56195      162.43752    -3     7    -9   0.33246   0.03230   0.01120  18.66357   0.04597  92.52863         823.00        2536.95     1.12753     1.81281   177.16751     0.10215     0.00000   300.99893   300.99893
    25      822.87073       31.37644    -9     5    -7   0.18158  -0.13714   0.00776  18.39851   0.04356 101.33006         929.00        3677.95     1.52591     1.82191   165.87794     0.13143     0.00000   784.07562   784.07562
    27      261.67850       78.66047    -5     7    -9  -0.07129  -0.04773   0.00309  18.84926   0.04354  98.10692        3580.00       11508.95     1.64727     1.86038    15.31210     0.18704     0.00000   920.14587   920.14587
    34      698.74426      226.34702    -9     7    -7   0.05494  -0.10589   0.00419  21.74943   0.04058  89.25036         522.00        2764.24     1.23885     2.33164     5.66252     0.52932     0.00000   615.84363   615.84363
    28      454.66415       47.75039    -7     7    -9   0.00544   0.03528   0.00113  19.88947   0.04053 100.54035        3965.00       10103.95     1.42522     1.71737   168.11217     0.17304     0.00000    27.91312    27.91312
    32      971.55426       85.59991   -11     5    -7  -0.34722  -0.33795   0.01590  21.19120   0.03885  97.70811        2792.00        5781.95     1.07727     1.48224   178.81514     0.14971     0.00000   454.98557   454.98557
latticeparameters=   0.54324   0.54485   0.54092  89.94809  90.19356  90.25761
dpsx, dpsy: 179.00000 168.38699
dd, xcent, ycent:      150.57201      540.60303      212.87601
pitch,yaw,roll:  -0.22645   0.61642   0.00000
dev1, dev2, pixdev:   0.01229   0.01211   0.25706
deviatoric strain in crystal reference u1 u2 u3 (*10^3)
   0.44335  -2.25577  -1.68270
  -2.25577   3.40200   0.44373
  -1.68270   0.44373  -3.83212
deviatoric strain in sample reference X Y Z (*10^3)
  -0.26865  -0.85845   0.49555
  -0.85845   4.64346   0.18260
   0.49555   0.18260  -4.36158
deviatoric principal strains (*10^3):   4.79020  -0.34725  -4.42972
deviatoric strain principal axes in sample reference:
  -0.16628   0.98602   0.01067
   0.97817   0.16356   0.12819
  -0.12465  -0.03175   0.99169
deviatoric stress in crystal reference u1 u2 u3 (MPa)
       45.93500     -358.71255     -267.58228
     -358.71255      346.82956       70.56188
     -267.58228       70.56188     -388.88031
deviatoric stress in sample reference X Y Z (MPa)
      -38.89226     -198.93373      -27.08119
     -198.93373      569.14557       22.54814
      -27.08119       22.54814     -526.36908
deviatoric principal stresses (MPa):      629.19318      -97.30950     -527.99939
deviatoric stress principal axes in sample reference:
       -0.28624        0.95782        0.02540
       -0.95682       -0.28714        0.04530
        0.05068       -0.01133        0.99865
total strain in sample reference X Y Z (*10^3)
   1.52465  -0.85845   0.49555
  -0.85845   6.43676   0.18260
   0.49555   0.18260  -2.56828
total principal strains (*10^3):   6.58350   1.44604  -2.63642
total strain principal axes in sample reference:
  -0.16628   0.98602   0.01067
   0.97817   0.16356   0.12819
  -0.12465  -0.03175   0.99169
total stress in crystal reference u1 u2 u3 (MPa)
      572.30408     -358.71255     -267.58228
     -358.71255      873.19861       70.56188
     -267.58228       70.56188      137.48875
total stress in sample reference X Y Z (MPa)
      487.47681     -198.93373      -27.08119
     -198.93373     1095.51465       22.54814
      -27.08119       22.54814        0.00000
total principal stresses (MPa):     1155.56226      429.05954       -1.63034
total stress principal axes in sample reference:
       -0.28624        0.95782        0.02540
       -0.95682       -0.28714        0.04530
        0.05068       -0.01133        0.99865
dilatational strain (*10^-3):        1.79330
hydrostatic stress (MPa):      527.66382
Von Mises stress (MPa):     1013.01398
equivalent strain (*10^-3):        5.33473
equivalent stress (MPa):     1013.01398
maximum resolved shear stress:       15.31528
coordinates of a, b, c in X, Y, Z
   0.44441  -0.20243   0.23852
   0.19251   0.50581   0.06499
  -0.24574   0.03225   0.48107
coordinates of a*, b*, c* in X, Y, Z
   1.50607  -0.67791   0.81478
   0.65600   1.70070   0.22108
  -0.83535   0.10637   1.64670
