\\vmware-host\Shared Folders\Desktop\SiHyperlaueFinal_shielded_results\results_00081.STR
Number of grains:       1
Grain no:       1   Grainlist file index:       1    Number of peaks:      33
no   x(exp)  y(exp)  h  k  l xdev  ydev  angdev  energy  dspace  twotheta  intens   integr  xwidth   ywidth  tilt  rfactor   pearson  xcentroid  ycentroid
     2      392.63290      871.96704    -2     4    -2  -0.31907  -0.10677   0.01850  12.44779   0.11105  53.29225       42863.00      146637.64     1.75153     2.06231   178.61610     0.20961     0.00000   746.65497   746.65497
     5      746.34290      951.24890    -3     3    -1  -0.35456   0.53263   0.02263  11.59344   0.12490  50.69765       41613.00      105875.65     1.59296     1.90928    89.03964     0.20000     0.00000  1026.77124  1026.77124
    13      991.67981      299.61609    -4     2    -2   0.12622  -0.07280   0.00527   8.25853   0.11084  85.25957       38790.00       67009.65     1.22058     1.56904   179.42844     0.21960     0.00000   282.88712   282.88712
     3      546.05420      225.13892    -3     3    -3   0.10586   0.18684   0.00787   8.45272   0.10446  89.19082       30517.00       46987.64     1.24150     1.24170    61.68111     0.18498     0.00000   992.01971   992.01971
     7     1026.44958      909.49194    -5     3    -1  -0.27663   0.25742   0.01384  14.49304   0.09197  55.43464         448.00        1384.65     1.11872     1.54856   179.46732     0.06723     0.00000    61.99525    61.99525
     6      925.00256      683.01794    -6     4    -2   0.09390   0.01866   0.00436  16.08259   0.07268  64.06264       40731.00      107518.65     1.70038     1.86124   120.04950     0.24067     0.00000   925.35034   925.35034
    36       61.85472      407.68158    -1     3    -3   0.20770   0.30426   0.01211   7.85982   0.12446  78.64917           0.00           0.00     0.00000     0.00000     0.00000     0.00000     0.00000     0.00000     0.00000
     4      426.63617      666.11487    -3     5    -3   0.45225  -0.13123   0.02496  14.35971   0.08292  62.75153       57136.00      193216.64     1.81392     1.87248    19.33689     0.22899     0.00000   546.37988   546.37988
    14      648.66730      500.21542    -6     6    -4   0.17063   0.02214   0.00890  18.19120   0.05795  72.04485       13674.00       24049.65     1.21222     1.44940     4.16536     0.18785     0.00000   258.92169   258.92169
     8      668.66705      570.49731    -5     5    -3   0.11353  -0.03816   0.00613  15.64162   0.07079  68.09244       39024.00      186144.64     1.90616     2.84790   174.87604     0.30941     0.00000   426.85373   426.85373
    11      868.10889      257.27887    -5     3    -3   0.08425   0.21040   0.00730  10.82850   0.08280  87.48753       20768.00       59797.64     1.77407     1.89406    12.42930     0.21816     0.00000   868.37866   868.37866
    10      331.59024      270.35031    -4     6    -6  -0.49234  -0.03122   0.02226  15.68236   0.05785  86.21172       54235.00       81180.65     1.08474     1.54036     0.13575     0.19283     0.00000   669.00507   669.00507
     9      282.61365      288.46439    -3     5    -5  -0.42024  -0.03434   0.01868  12.97652   0.07065  85.10152       21956.00       46461.64     1.08988     1.87019     0.05460     0.19490     0.00000   649.00220   649.00220
    19      258.61755      619.59381    -3     7    -5  -0.04744  -0.39097   0.01067  19.09103   0.05964  65.98096       19457.00       37912.64     1.23876     1.68377     7.00699     0.22903     0.00000   129.72192   129.72192
    17      858.88391      567.50555    -7     5    -3   0.16654  -0.27718   0.01118  18.24903   0.05968  69.39253        8244.00       20114.65     1.08793     1.94754     0.02142     0.29767     0.00000   464.00540   464.00540
    31      475.02802      454.84146    -6     8    -6   0.01780   0.04585   0.00169  21.96837   0.04659  74.55650         451.00        2199.65     1.32400     2.03759     6.99648     0.10056     0.00000   699.00116   699.00116
    20      463.66998      498.15771    -5     7    -5   0.36133  -0.13060   0.01926  19.31499   0.05462  71.98238       13665.00       27558.65     1.17502     1.71816   177.65201     0.21895     0.00000   439.07083   439.07083
    22      721.86072      228.63791    -8     6    -6   0.05605   0.01445   0.00255  18.98007   0.04655  89.11574       23676.00       34324.64     1.16069     1.26077   179.15244     0.18916     0.00000   753.87903   753.87903
    15      129.38380       39.61993    -3     5    -7  -0.21699   0.22071   0.01007  13.62007   0.05948  99.85745       13867.00       31388.65     1.49073     1.64667    26.54755     0.22333     0.00000   859.20612   859.20612
    18      438.70142       20.96117    -6     6    -8   0.43057   0.29936   0.01960  17.13940   0.04649 102.16117        9148.00       18386.65     1.22948     1.54524   178.00710     0.21248     0.00000   722.14697   722.14697
    30     1012.70142      601.54620    -9     5    -3   0.03261  -0.15066   0.00413  21.60169   0.05069  68.96067        5383.00        9348.65     1.12104     1.34221   176.82887     0.15200     0.00000   262.03992   262.03992
    16      753.59772      232.69170    -7     5    -5  -0.32031   0.18884   0.01530  16.22782   0.05456  88.87557         887.00        3164.65     1.55166     1.79673   170.24841     0.10805     0.00000   475.02798   475.02798
    21      145.61046      355.20065    -3     7    -7  -0.04313  -0.04065   0.00219  18.13776   0.05245  81.32981        1205.00        3358.65     1.34182     1.64233   174.15564     0.10458     0.00000  1013.01105  1013.01105
    23      364.76028      259.68530    -5     7    -7  -0.04524  -0.09060   0.00358  18.42383   0.04893  86.88918        7252.00       18920.65     1.24849     1.89827   179.47044     0.17732     0.00000   145.92923   145.92923
    29      784.12677       52.52232   -10     6    -8  -0.02378  -0.08821   0.00288  21.07590   0.03835 100.15261        3931.00       11247.65     1.48206     1.85034    76.00668     0.20349     0.00000   823.12329   823.12329
    33      300.67819       92.97900    -6     8   -10  -0.06402   0.01974   0.00265  21.53322   0.03834  97.34239         652.00        2563.65     1.32914     1.75850    12.43175     0.11817     0.00000   971.99506   971.99506
    24      919.93170      273.25626    -9     5    -5   0.11814  -0.06054   0.00508  19.04866   0.04744  86.63279        9645.00       16197.65     1.20511     1.32335     1.75210     0.17872     0.00000   365.09286   365.09286
    26       27.57155      162.43121    -3     7    -9   0.32317   0.03247   0.01089  18.66337   0.04597  92.52898         846.00        2457.65     1.12317     1.77627   177.09435     0.09745     0.00000   301.00226   301.00226
    25      822.87335       31.38574    -9     5    -7   0.18800  -0.16483   0.00838  18.39830   0.04356 101.33113         849.00        3849.65     1.63389     1.87360    81.49313     0.14235     0.00000   784.09467   784.09467
    27      261.67984       78.66057    -5     7    -9  -0.07099  -0.05766   0.00322  18.84905   0.04354  98.10753        3526.00       11397.65     1.66140     1.86734    18.71809     0.18368     0.00000   920.16565   920.16565
    34      698.75275      226.28769    -9     7    -7   0.05109  -0.05752   0.00294  21.74922   0.04058  89.25107         522.00        2764.24     1.23885     2.33164     5.66252     0.52932     0.00000   615.84363   615.84363
    28      454.66376       47.75962    -7     7    -9   0.00919   0.01358   0.00057  19.88924   0.04053 100.54114        3896.00        9842.65     1.39457     1.71035   168.60004     0.17614     0.00000    27.91645    27.91645
    32      971.56982       85.56269   -11     5    -7  -0.35103  -0.32033   0.01568  21.19096   0.03885  97.70921        2761.00        5963.65     1.07573     1.49742   178.30067     0.15820     0.00000   455.00415   455.00415
latticeparameters=   0.54324   0.54484   0.54093  89.94952  90.19381  90.25790
dpsx, dpsy: 179.00000 168.38699
dd, xcent, ycent:      150.57201      540.60303      212.87601
pitch,yaw,roll:  -0.22645   0.61642   0.00000
dev1, dev2, pixdev:   0.01225   0.01207   0.25267
deviatoric strain in crystal reference u1 u2 u3 (*10^3)
   0.44828  -2.25824  -1.68481
  -2.25824   3.38684   0.43130
  -1.68481   0.43130  -3.82198
deviatoric strain in sample reference X Y Z (*10^3)
  -0.26109  -0.86225   0.48757
  -0.86225   4.63166   0.16984
   0.48757   0.16984  -4.35743
deviatoric principal strains (*10^3):   4.77997  -0.34401  -4.42281
deviatoric strain principal axes in sample reference:
  -0.16771   0.98579   0.00937
   0.97820   0.16522   0.12583
  -0.12249  -0.03027   0.99201
deviatoric stress in crystal reference u1 u2 u3 (MPa)
       46.43079     -359.10522     -267.91882
     -359.10522      345.28238       68.58486
     -267.91882       68.58486     -387.85477
deviatoric stress in sample reference X Y Z (MPa)
      -37.89382     -199.15173      -28.17844
     -199.15173      567.96771       20.64038
      -28.17844       20.64038     -526.21552
deviatoric principal stresses (MPa):      628.23993      -96.46247     -527.91907
deviatoric stress principal axes in sample reference:
       -0.28729        0.95754        0.02413
       -0.95633       -0.28816        0.04887
        0.05374       -0.00904        0.99851
total strain in sample reference X Y Z (*10^3)
   1.53168  -0.86225   0.48757
  -0.86225   6.42444   0.16984
   0.48757   0.16984  -2.56465
total principal strains (*10^3):   6.57274   1.44877  -2.63004
total strain principal axes in sample reference:
  -0.16771   0.98579   0.00937
   0.97820   0.16522   0.12583
  -0.12249  -0.03027   0.99201
total stress in crystal reference u1 u2 u3 (MPa)
      572.64630     -359.10522     -267.91882
     -359.10522      871.49786       68.58486
     -267.91882       68.58486      138.36073
total stress in sample reference X Y Z (MPa)
      488.32166     -199.15173      -28.17844
     -199.15173     1094.18323       20.64038
      -28.17844       20.64038        0.00000
total principal stresses (MPa):     1154.45544      429.75302       -1.70355
total stress principal axes in sample reference:
       -0.28729        0.95754        0.02413
       -0.95633       -0.28816        0.04887
        0.05374       -0.00904        0.99851
dilatational strain (*10^-3):        1.79278
hydrostatic stress (MPa):      527.50165
Von Mises stress (MPa):     1011.94171
equivalent strain (*10^-3):        5.32464
equivalent stress (MPa):     1011.94171
maximum resolved shear stress:       15.47313
coordinates of a, b, c in X, Y, Z
   0.44442  -0.20243   0.23853
   0.19251   0.50581   0.06497
  -0.24575   0.03225   0.48107
coordinates of a*, b*, c* in X, Y, Z
   1.50607  -0.67789   0.81479
   0.65600   1.70074   0.22109
  -0.83534   0.10641   1.64669
