\\vmware-host\Shared Folders\Desktop\SiHyperlaueFinal_shielded_results\results_00120.STR
Number of grains:       1
Grain no:       1   Grainlist file index:       1    Number of peaks:      32
no   x(exp)  y(exp)  h  k  l xdev  ydev  angdev  energy  dspace  twotheta  intens   integr  xwidth   ywidth  tilt  rfactor   pearson  xcentroid  ycentroid
     2      392.64182      872.02820    -2     4    -2  -0.29672  -0.12514   0.01732  12.44994   0.11103  53.29032       27933.00       85820.82     1.67360     2.02400   178.39046     0.21341     0.00000   746.68658   746.68658
     6      746.39618      951.31879    -3     3    -1  -0.39079   0.48973   0.02411  11.59461   0.12489  50.69676       32614.00       86138.82     1.62557     1.93088   110.29407     0.24557     0.00000   925.35095   925.35095
    14      991.68561      299.61685    -4     2    -2   0.14776  -0.10463   0.00643   8.25866   0.11083  85.26144       11752.00       27448.82     1.50819     1.68005    41.30558     0.21817     0.00000   859.21320   859.21320
     4      546.07745      225.17239    -3     3    -3   0.08299   0.17272   0.00686   8.45355   0.10445  89.18955       37415.00      135667.81     1.85518     1.86194    62.72672     0.22313     0.00000   546.38257   546.38257
     7     1026.48645      909.53137    -5     3    -1  -0.27459   0.23081   0.01352  14.49363   0.09196  55.43467       29410.00      143307.81     1.91007     2.94472   175.31174     0.31230     0.00000   426.89334   426.89334
     5      925.01331      683.00629    -6     4    -2   0.10784   0.03168   0.00502  16.08334   0.07267  64.06282       31511.00       78143.82     1.56202     1.82762   168.26625     0.22321     0.00000  1026.77954  1026.77954
     3      426.65680      666.12836    -3     5    -3   0.45460  -0.10366   0.02504  14.36196   0.08291  62.74935       23948.00       37486.82     1.24165     1.24335    52.65700     0.18624     0.00000   992.03680   992.03680
    12      648.66736      500.21204    -6     6    -4   0.17877   0.04334   0.00938  18.19298   0.05794  72.04383       31038.00       51445.82     1.21138     1.49476   179.16995     0.21162     0.00000   282.89206   282.89206
     8      668.66699      570.49762    -5     5    -3   0.12349  -0.02004   0.00658  15.64316   0.07079  68.09145       18973.00       40283.82     1.08916     1.87526   179.96899     0.18862     0.00000   649.00659   649.00659
    13      868.12799      257.28140    -5     3    -3   0.07683   0.18754   0.00654  10.82887   0.08279  87.48879       12197.00       21185.82     1.19433     1.44403     3.37150     0.17893     0.00000   258.93604   258.93604
     9      331.59760      270.38132    -4     6    -6  -0.48324  -0.01791   0.02183  15.68456   0.05784  86.20891       44457.00       66465.82     1.08440     1.53427   179.96989     0.19170     0.00000   669.00446   669.00446
    10      282.61670      288.50119    -3     5    -5  -0.40054  -0.02250   0.01778  12.97845   0.07064  85.09847       12710.00       37563.82     1.78276     1.89090   152.70433     0.19811     0.00000   868.34601   868.34601
    19      258.62430      619.59796    -3     7    -5  -0.01342  -0.34775   0.00916  19.09444   0.05963  65.97823       11832.00       24365.82     1.17870     1.73570   177.67665     0.21251     0.00000   439.08261   439.08261
    17      858.90131      567.49530    -7     5    -3   0.16631  -0.26723   0.01099  18.25002   0.05968  69.39267        8004.00       16534.82     1.23608     1.56503   178.63347     0.20690     0.00000   722.15741   722.15741
    31      475.05930      454.82874    -6     8    -6  -0.00074   0.09267   0.00281  21.97128   0.04659  74.55442        2436.00        5441.82     1.08543     1.51645     0.85677     0.15008     0.00000   454.99554   454.99554
    20      463.67001      498.14902    -5     7    -5   0.37626  -0.08594   0.01986  19.31765   0.05461  71.98024        1109.00        3173.82     1.32470     1.60550   171.47728     0.10701     0.00000  1013.02655  1013.02655
    22      721.87396      228.63496    -8     6    -6   0.04409   0.01394   0.00202  18.98124   0.04655  89.11596        6586.00       16820.82     1.24011     1.89705   179.24493     0.16923     0.00000   145.92325   145.92325
    15      129.37927       39.63044    -3     5    -7  -0.18664   0.27350   0.01043  13.62198   0.05947  99.85395         822.00        3036.82     1.50789     1.83099   178.03998     0.10371     0.00000   475.04575   475.04575
    18      438.70322       20.97245    -6     6    -8   0.42256   0.31369   0.01953  17.14111   0.04648 102.15957       15517.00       30097.82     1.21288     1.69063     5.75296     0.21527     0.00000   129.73640   129.73640
    30     1012.72388      601.53662    -9     5    -3   0.04451  -0.15065   0.00436  21.60226   0.05069  68.96149         456.00        2074.82     1.29332     2.05787     5.75316     0.09698     0.00000   699.00885   699.00885
    16      753.59436      232.68890    -7     5    -5  -0.31418   0.18430   0.01499  16.22873   0.05456  88.87604        7342.00       17783.82     1.08920     1.95195     0.13527     0.29648     0.00000   464.01614   464.01614
    21      145.61491      355.22211    -3     7    -7  -0.00209  -0.00575   0.00019  18.14082   0.05244  81.32638       19975.00       29227.82     1.15375     1.26966   178.51636     0.18651     0.00000   753.89087   753.89087
    23      364.76724      259.68521    -5     7    -7  -0.03950  -0.04955   0.00241  18.42630   0.04893  86.88656        8553.00       14554.82     1.19379     1.33850     1.09855     0.17757     0.00000   365.10944   365.10944
    29      784.16534       52.51220   -10     6    -8  -0.06376  -0.10192   0.00406  21.07676   0.03835 100.15406        4779.00        8386.82     1.12020     1.33152   176.52553     0.14813     0.00000   262.00549   262.00549
    32      300.68076       93.01610    -6     8   -10  -0.05781   0.02789   0.00249  21.53596   0.03833  97.33961         617.00        2406.82     1.35854     1.76674    13.02980     0.10933     0.00000   971.97589   971.97589
    25      919.94574      273.23209    -9     5    -5   0.12159  -0.06170   0.00522  19.04917   0.04744  86.63434         765.00        2566.82     1.10561     1.80596   179.42073     0.10852     0.00000   301.01428   301.01428
    26       27.58136      162.47684    -3     7    -9   0.36576   0.05562   0.01238  18.66634   0.04597  92.52521        2955.00       10210.82     1.67819     1.89753    15.50918     0.17690     0.00000   920.14191   920.14191
    24      822.87024       31.34408    -9     5    -7   0.19216  -0.15459   0.00835  18.39892   0.04356 101.33301         769.00        3483.82     1.63543     1.88511    78.87860     0.12946     0.00000   784.08246   784.08246
    27      261.67847       78.66647    -5     7    -9  -0.05776  -0.01413   0.00227  18.85150   0.04354  98.10456        3696.00        8864.82     1.38066     1.63050   166.69385     0.16752     0.00000    27.95202    27.95202
    35      698.73779      226.29637    -9     7    -7   0.06648  -0.06674   0.00367  21.75067   0.04057  89.25110           0.00           0.00     0.00000     0.00000     0.00000     0.00000     0.00000     0.00000     0.00000
    28      454.66473       47.76053    -7     7    -9   0.00287   0.03716   0.00117  19.89122   0.04052 100.53960        3512.00       10244.82     1.46614     1.88811    92.67832     0.20343     0.00000   823.13190   823.13190
    33      971.57190       85.55812   -11     5    -7  -0.33286  -0.36362   0.01601  21.19124   0.03885  97.71191         610.00        2434.22     1.36405     1.79847    16.01220     0.11308     0.00000   971.97046   971.97046
latticeparameters=   0.54329   0.54480   0.54093  89.94752  90.19130  90.25861
dpsx, dpsy: 179.00000 168.38699
dd, xcent, ycent:      150.57201      540.60303      212.87601
pitch,yaw,roll:  -0.22645   0.61642   0.00000
dev1, dev2, pixdev:   0.01227   0.01208   0.24725
deviatoric strain in crystal reference u1 u2 u3 (*10^3)
   0.54238  -2.26421  -1.66307
  -2.26421   3.29676   0.44870
  -1.66307   0.44870  -3.82624
deviatoric strain in sample reference X Y Z (*10^3)
  -0.23549  -0.92706   0.53384
  -0.92706   4.57227   0.14958
   0.53384   0.14958  -4.32387
deviatoric principal strains (*10^3):   4.74510  -0.33169  -4.40051
deviatoric strain principal axes in sample reference:
  -0.18242   0.98321   0.00548
   0.97409   0.17997   0.13700
  -0.13371  -0.03033   0.99056
deviatoric stress in crystal reference u1 u2 u3 (MPa)
       55.98547     -360.05499     -264.46136
     -360.05499      336.10626       71.35192
     -264.46136       71.35192     -388.30289
deviatoric stress in sample reference X Y Z (MPa)
      -36.71871     -206.09969      -22.63320
     -206.09969      562.17676       18.88810
      -22.63320       18.88810     -521.66919
deviatoric principal stresses (MPa):      626.78174     -100.18331     -522.80957
deviatoric stress principal axes in sample reference:
       -0.29724        0.95456        0.02156
       -0.95385       -0.29788        0.03787
        0.04257       -0.00931        0.99905
total strain in sample reference X Y Z (*10^3)
   1.54180  -0.92706   0.53384
  -0.92706   6.34955   0.14958
   0.53384   0.14958  -2.54658
total principal strains (*10^3):   6.52239   1.44560  -2.62322
total strain principal axes in sample reference:
  -0.18242   0.98321   0.00548
   0.97409   0.17997   0.13700
  -0.13371  -0.03033   0.99056
total stress in crystal reference u1 u2 u3 (MPa)
      577.65466     -360.05499     -264.46136
     -360.05499      857.77545       71.35192
     -264.46136       71.35192      133.36630
total stress in sample reference X Y Z (MPa)
      484.95050     -206.09969      -22.63320
     -206.09969     1083.84595       18.88810
      -22.63320       18.88810        0.00000
total principal stresses (MPa):     1148.45081      421.48593       -1.14038
total stress principal axes in sample reference:
       -0.29724        0.95456        0.02156
       -0.95385       -0.29788        0.03787
        0.04257       -0.00931        0.99905
dilatational strain (*10^-3):        1.77729
hydrostatic stress (MPa):      522.93213
Von Mises stress (MPa):     1007.13739
equivalent strain (*10^-3):        5.29090
equivalent stress (MPa):     1007.13739
maximum resolved shear stress:       22.81347
coordinates of a, b, c in X, Y, Z
   0.44452  -0.20241   0.23859
   0.19245   0.50583   0.06496
  -0.24576   0.03225   0.48112
coordinates of a*, b*, c* in X, Y, Z
   1.50617  -0.67768   0.81478
   0.65596   1.70113   0.22104
  -0.83547   0.10637   1.64683
