\\vmware-host\Shared Folders\Desktop\SiHyperlaueFinal_shielded_results\results_00002.STR
Number of grains:       1
Grain no:       1   Grainlist file index:       1    Number of peaks:      33
no   x(exp)  y(exp)  h  k  l xdev  ydev  angdev  energy  dspace  twotheta  intens   integr  xwidth   ywidth  tilt  rfactor   pearson  xcentroid  ycentroid
     3      392.61426      871.98029    -2     4    -2  -0.33022  -0.10411   0.01912  12.44855   0.11104  53.29172       51231.00       75815.48     1.22255     1.23583   173.80614     0.18064     0.00000   991.98254   991.98254
     4      746.26044      951.28979    -3     3    -1  -0.31633   0.54677   0.02088  11.59441   0.12489  50.69521      108574.00      353092.47     1.77538     1.87406   178.78000     0.23333     0.00000   546.36707   546.36707
    13      991.65686      299.62375    -4     2    -2   0.11934  -0.01547   0.00457   8.25888   0.11084  85.25574       60576.00      105313.48     1.24012     1.55737   179.06024     0.23295     0.00000   282.86447   282.86447
     2      546.01379      225.15871    -3     3    -3   0.12957   0.19883   0.00889   8.45304   0.10446  89.18873       73248.00      256750.48     1.83044     2.05159   168.17661     0.21751     0.00000   746.59589   746.59589
     6     1026.40442      909.56366    -5     3    -1  -0.28629   0.26539   0.01431  14.49428   0.09196  55.43082       48976.00      133851.48     1.65940     1.90081   102.43626     0.24998     0.00000   925.32672   925.32672
     7      924.95947      683.09589    -6     4    -2   0.09264   0.00579   0.00431  16.08375   0.07268  64.05905        2478.00        4288.48     1.14763     1.43134   179.51112     0.09068     0.00000    62.05004    62.05004
    30       61.79955      407.68597    -1     3    -3   0.24732   0.29381   0.01307   7.86006   0.12446  78.64958        6210.00       10800.48     1.12188     1.37640   176.75389     0.15731     0.00000   262.02124   262.02124
     5      426.60379      666.13898    -3     5    -3   0.45744  -0.13192   0.02525  14.36057   0.08292  62.75040       54732.00      143822.48     1.64924     1.87755   106.44300     0.19588     0.00000  1026.72766  1026.72766
    15      648.66675      500.27075    -6     6    -4   0.14167   0.00837   0.00738  18.19229   0.05795  72.04232       18098.00       37179.48     1.42511     1.53068    75.29389     0.22949     0.00000   859.18292   859.18292
    10      668.66687      570.53174    -5     5    -3   0.08141  -0.02890   0.00440  15.64263   0.07079  68.08987       72064.00      104820.48     1.08435     1.48204     0.00910     0.19253     0.00000   669.00110   669.00110
     8      868.06238      257.36816    -5     3    -3   0.10574   0.17627   0.00693  10.82894   0.08280  87.48413       57662.00      253678.48     1.89621     2.67086   175.15894     0.30494     0.00000   426.80139   426.80139
    12      331.58212      270.36966    -4     6    -6  -0.49875  -0.03429   0.02256  15.68294   0.05785  86.21070       38150.00       81082.48     1.30071     1.73114   177.93588     0.25228     0.00000   331.83646   331.83646
     9      282.60571      288.47125    -3     5    -5  -0.42671  -0.02864   0.01895  12.97699   0.07064  85.10075       27838.00       55149.48     1.08953     1.83961   179.98695     0.19964     0.00000   649.01154   649.01154
    19      258.60532      619.59546    -3     7    -5  -0.05724  -0.38445   0.01066  19.09195   0.05963  65.98068       28580.00       56138.48     1.24195     1.69014     7.44666     0.24775     0.00000   129.68533   129.68533
    17      858.83923      567.55695    -7     5    -3   0.17297  -0.27065   0.01129  18.25021   0.05968  69.38912        9277.00       23668.48     1.08597     1.94625   179.98196     0.30187     0.00000   464.01010   464.01010
    32      474.95422      454.91080    -6     8    -6   0.06836   0.00462   0.00354  21.96954   0.04659  74.55481        3147.00        6608.48     1.08297     1.53646     0.50194     0.15932     0.00000   454.97778   454.97778
    20      463.66891      498.18921    -5     7    -5   0.33821  -0.13479   0.01810  19.31605   0.05461  71.98079       16750.00       34049.48     1.17175     1.75363   177.57521     0.22084     0.00000   439.08325   439.08325
    22      721.82507      228.65331    -8     6    -6   0.07122   0.04332   0.00348  18.98082   0.04655  89.11289       28893.00       44083.48     1.18756     1.30558   177.28476     0.21182     0.00000   753.86285   753.86285
    14      129.37968       39.61967    -3     5    -7  -0.21888   0.21886   0.01009  13.62030   0.05948  99.85754       15341.00       27452.48     1.24240     1.45662     6.05384     0.19661     0.00000   258.89532   258.89532
    18      438.70007       20.98789    -6     6    -8   0.42590   0.29408   0.01936  17.13978   0.04649 102.15983       11503.00       21824.48     1.20812     1.47189   177.95235     0.21888     0.00000   722.15027   722.15027
    31     1012.68274      601.62170    -9     5    -3   0.00697  -0.15580   0.00394  21.60311   0.05069  68.95672         576.00        2419.48     1.23811     1.93143     1.33612     0.10698     0.00000   698.98920   698.98920
    16      753.57977      232.70364    -7     5    -5  -0.32370   0.22345   0.01589  16.22847   0.05456  88.87259        1059.00        3393.48     1.68624     1.72910   143.30412     0.10074     0.00000   475.08600   475.08600
    21      145.60320      355.19559    -3     7    -7  -0.05066  -0.03415   0.00236  18.13835   0.05245  81.32977        1433.00        3617.48     1.32057     1.48818   169.48799     0.10768     0.00000  1013.00366  1013.00366
    23      364.74603      259.68976    -5     7    -7  -0.04568  -0.07629   0.00323  18.42451   0.04893  86.88798        8546.00       22677.48     1.26660     1.90214   179.50604     0.18727     0.00000   145.90730   145.90730
    29      784.12433       52.59411   -10     6    -8  -0.03334  -0.11282   0.00373  21.07643   0.03835 100.14976        4937.00       13371.48     1.49333     1.70095    83.86635     0.22783     0.00000   823.15350   823.15350
    33      300.67859       92.98318    -6     8   -10  -0.07237   0.02774   0.00304  21.53375   0.03834  97.34161         732.00        2769.48     1.36559     1.55504    13.55706     0.12520     0.00000   971.97186   971.97186
    25      919.90430      273.36035    -9     5    -5   0.11862  -0.10544   0.00572  19.04945   0.04744  86.62920        1032.00        4344.48     1.50446     1.84729   169.66579     0.14741     0.00000   784.10388   784.10388
    26       27.56949      162.41258    -3     7    -9   0.31502   0.04245   0.01064  18.66374   0.04597  92.52944         978.00        2876.48     1.11096     1.76683   177.10892     0.11281     0.00000   300.98566   300.98566
    24      822.84534       31.44358    -9     5    -7   0.20480  -0.17274   0.00903  18.39873   0.04356 101.32818       11963.00       19581.48     1.20421     1.28460     3.01628     0.18934     0.00000   365.10358   365.10358
    27      261.67908       78.66156    -5     7    -9  -0.07743  -0.04969   0.00333  18.84947   0.04354  98.10696        4546.00       13134.48     1.61448     1.77374    18.77400     0.20019     0.00000   920.15277   920.15277
    36      698.73236      226.38094    -9     7    -7   0.05160  -0.10817   0.00417  21.75007   0.04058  89.24831           0.00           0.00     0.00000     0.00000     0.00000     0.00000     0.00000     0.00000     0.00000
    28      454.66376       47.78320    -7     7    -9   0.00178   0.01300   0.00041  19.88972   0.04053 100.53969        4578.00       11485.48     1.39515     1.75405   169.70242     0.17955     0.00000    27.91740    27.91740
    34      971.55341       85.58776   -11     5    -7  -0.35125  -0.28339   0.01504  21.19154   0.03885  97.70568         522.00        2764.24     1.23885     2.33164     5.66252     0.52932     0.00000   615.84363   615.84363
latticeparameters=   0.54326   0.54482   0.54094  89.94883  90.19157  90.25674
dpsx, dpsy: 179.00000 168.38699
dd, xcent, ycent:      150.57201      540.60303      212.87601
pitch,yaw,roll:  -0.22645   0.61642   0.00000
dev1, dev2, pixdev:   0.01229   0.01204   0.25480
deviatoric strain in crystal reference u1 u2 u3 (*10^3)
   0.47078  -2.24793  -1.66540
  -2.24793   3.33676   0.43742
  -1.66540   0.43742  -3.79466
deviatoric strain in sample reference X Y Z (*10^3)
  -0.25717  -0.87799   0.49693
  -0.87799   4.58468   0.16452
   0.49693   0.16452  -4.31463
deviatoric principal strains (*10^3):   4.73962  -0.34393  -4.38280
deviatoric strain principal axes in sample reference:
  -0.17224   0.98502   0.00844
   0.97697   0.16972   0.12930
  -0.12593  -0.03052   0.99157
deviatoric stress in crystal reference u1 u2 u3 (MPa)
       48.70244     -357.46567     -264.83203
     -357.46567      340.17200       69.55783
     -264.83203       69.55783     -385.09290
deviatoric stress in sample reference X Y Z (MPa)
      -38.11470     -200.28261      -26.39216
     -200.28261      562.76288       20.26382
      -26.39216       20.26382     -520.86664
deviatoric principal stresses (MPa):      624.04010      -97.86638     -522.39215
deviatoric stress principal axes in sample reference:
       -0.29030        0.95664        0.02362
       -0.95560       -0.29111        0.04568
        0.05057       -0.00931        0.99868
total strain in sample reference X Y Z (*10^3)
   1.51738  -0.87799   0.49693
  -0.87799   6.35923   0.16452
   0.49693   0.16452  -2.54007
total principal strains (*10^3):   6.51417   1.43062  -2.60825
total strain principal axes in sample reference:
  -0.17224   0.98502   0.00844
   0.97697   0.16972   0.12930
  -0.12593  -0.03052   0.99157
total stress in crystal reference u1 u2 u3 (MPa)
      569.56909     -357.46567     -264.83203
     -357.46567      861.03864       69.55783
     -264.83203       69.55783      135.77374
total stress in sample reference X Y Z (MPa)
      482.75195     -200.28261      -26.39216
     -200.28261     1083.62952       20.26382
      -26.39216       20.26382        0.00000
total principal stresses (MPa):     1144.90674      423.00027       -1.52551
total stress principal axes in sample reference:
       -0.29030        0.95664        0.02362
       -0.95560       -0.29111        0.04568
        0.05057       -0.00931        0.99868
dilatational strain (*10^-3):        1.77455
hydrostatic stress (MPa):      522.12714
Von Mises stress (MPa):     1003.91187
equivalent strain (*10^-3):        5.27833
equivalent stress (MPa):     1003.91187
maximum resolved shear stress:       17.61342
coordinates of a, b, c in X, Y, Z
   0.44444  -0.20244   0.23853
   0.19254   0.50578   0.06495
  -0.24572   0.03228   0.48112
coordinates of a*, b*, c* in X, Y, Z
   1.50609  -0.67795   0.81470
   0.65612   1.70085   0.22101
  -0.83527   0.10649   1.64671
