SiHyperlaueFinal_00120.tif
number of grains found:       1
grain no:       0     grainlist file index:       1
number of indexed reflections:      32
       x(exp)          y(exp)      h     k     l   ang_dev. xdev(pix) ydev(pix) Ener(keV) 2theta(deg)   chi(deg)intensity  integr    xwidth(pix) ywidth(pix)  tilt(deg)    rfact       pearson  xcentr(pix) ycentr(pix)   strfac  theor_integr  fit_intensity    fit_integr    fit_backg    harm   lin_abs
      392.64182      872.02820    -2     4    -2   0.04055   0.33258  -1.77667  12.47299  53.28377   9.14776   73247.0  144821.8     1.14694     1.89211     1.57325     0.17110     0.00000   392.92160   872.36249            1.7         2167.3        66270.7       162957.0           96.3     1       41.52139
      746.39618      951.31879    -3     3    -1   0.05518  -0.71290  -2.06677  11.61928  50.71850 -13.73477   27933.0   85820.8     1.67360     2.02400   178.39046     0.21341     0.00000   746.68658   951.66766            1.3         1392.1        26550.9       101907.6           96.3     1       51.30840
      991.68561      299.61685    -4     2    -2   0.00691  -0.10662   0.19127   8.25872  85.25499 -27.26542   23948.0   37486.8     1.24165     1.24335    52.65700     0.18624     0.00000   992.03680   299.98773            1.7         1048.5        20754.6        36305.4           96.3     2      140.78915
      546.07745      225.17239    -3     3    -3   0.02046   0.27885   0.48155   8.44870  89.20077  -0.36614   37415.0  135667.8     1.85518     1.86194    62.72672     0.22313     0.00000   546.38257   225.47765            1.2         2623.6        40977.7       160385.0           96.3     4      131.72218
     1026.48645      909.53137    -5     3    -1   0.07157  -1.42896  -2.14090  14.51878  55.44730 -29.42678   31511.0   78143.8     1.56202     1.82762   168.26625     0.22321     0.00000  1026.77954   909.83887            1.0          745.1        27326.8        88394.7           96.3     1       26.36318
      925.01331      683.00629    -6     4    -2   0.03186  -0.57046  -0.82491  16.10808  64.06327 -23.98090   32614.0   86138.8     1.62557     1.93088   110.29407     0.24557     0.00000   925.35095   683.36676            1.2          663.3        27107.0        96406.7           96.3     1       19.32651
      426.65680      666.12836    -3     5    -3   0.05348   0.93435  -0.67153  14.38042  62.74525   7.10035   29410.0  143307.8     1.91007     2.94472   175.31174     0.31230     0.00000   426.89334   666.54376            0.9          465.6        27187.4       173271.2           96.3     1       27.12933
      648.66736      500.21204    -6     6    -4   0.01193   0.22899   0.01993  18.21069  72.04584  -7.22945   18973.0   40283.8     1.08916     1.87526   179.96899     0.18862     0.00000   649.00659   500.77237            0.8          282.7        18686.4        43245.7           96.3     1       13.41353
      668.66699      570.49762    -5     5    -3   0.00967   0.11520  -0.26569  15.66400  68.08985  -8.56360   44457.0   66465.8     1.08440     1.53427   179.96989     0.19170     0.00000   669.00446   570.83112            0.8          273.4        38518.8        72615.4           96.3     1       21.00932
      868.12799      257.28140    -5     3    -3   0.01630  -0.00740   0.53356  10.82620  87.50012 -20.50113   12710.0   37563.8     1.78276     1.89090   152.70433     0.19811     0.00000   868.34601   257.71008            0.9          258.7        11696.1        44675.4           96.3     1       63.33168
      331.59760      270.38132    -4     6    -6   0.01241  -0.23185   0.21617  15.67323  86.20764  13.36372   25606.0   52744.8     1.26183     1.71498   178.43277     0.23768     0.00000   331.86594   270.79132            0.8          212.8        21971.3        53874.0           96.3     1       20.97238
      282.61670      288.50119    -3     5    -5   0.00901  -0.15123   0.19838  12.96838  85.09674  16.34142   31038.0   51445.8     1.21138     1.49476   179.16995     0.21162     0.00000   282.89206   288.80048            0.8          186.5        26432.9        54232.7           96.3     1       36.95826
      258.62430      619.59796    -3     7    -5   0.03444   0.61902  -0.68586  19.10762  65.95999  17.58707   12197.0   21185.8     1.19433     1.44403     3.37150     0.17893     0.00000   258.93604   620.00391            0.6          184.2        10357.0        20239.5           96.3     1       11.63398
      858.90131      567.49530    -7     5    -3   0.01912  -0.25506  -0.57628  18.27604  69.37704 -20.18891   11752.0   27448.8     1.50819     1.68005    41.30558     0.21817     0.00000   859.21320   567.92133            0.6          165.8         9911.6        28456.9           96.3     1       13.27180
      475.05930      454.82874    -6     8    -6   0.01762   0.32301   0.17086  21.98097  74.56005   4.10751     822.0    3036.8     1.50789     1.83099   178.03998     0.10371     0.00000   475.04575   455.07510            0.6          138.5          643.1         2011.9           96.3     1        7.71552
      463.67001      498.14902    -5     7    -5   0.03843   0.73083  -0.10427  19.33167  71.97553   4.81819    7342.0   17783.8     1.08920     1.95195     0.13527     0.29648     0.00000   464.01614   498.36804            0.6          118.9         7206.7        17361.1           96.3     1       11.24032
      721.87396      228.63496    -8     6    -6   0.01283   0.11634   0.36583  18.97581  89.11681 -11.68443    8004.0   16534.8     1.23608     1.56503   178.63347     0.20690     0.00000   722.15741   229.09499            0.6          107.6         6721.5        14733.3           96.3     1       11.87443
      129.37927       39.63044    -3     5    -7   0.02602  -0.72446   0.20848  13.59065  99.87051  25.19411   15517.0   30097.8     1.21288     1.69063     5.75296     0.21527     0.00000   129.73640    39.94314            0.6          107.3        13233.1        30746.6           96.3     1       32.12421
      438.70322       20.97245    -6     6    -8   0.02231   0.49061   0.33885  17.11056 102.17803   6.75175   11832.0   24365.8     1.17870     1.73570   177.67665     0.21251     0.00000   439.08261    21.31278            0.6          103.6        10201.7        23649.1           96.3     1       16.14263
     1012.72388      601.53662    -9     5    -3   0.03344  -0.72907  -0.67018  21.62819  68.95351 -28.53761    1109.0    3173.8     1.32470     1.60550   171.47728     0.10701     0.00000  1013.02655   602.02991            0.5          103.4          851.0         2050.7           96.3     1        8.08724
      753.59436      232.68890    -7     5    -5   0.02081  -0.27139   0.53894  16.22299  88.88804 -13.65901   19975.0   29227.8     1.15375     1.26966   178.51636     0.18651     0.00000   753.89087   233.10201            0.6           86.7        17432.1        28934.5           96.3     1       18.92078
      145.61491      355.22211    -3     7    -7   0.01077   0.21252   0.19971  18.12373  81.32604  24.16668    6586.0   16820.8     1.24011     1.89705   179.24493     0.16923     0.00000   145.92325   355.82870            0.5           85.7         6254.3        16671.7           96.3     1       13.60536
      364.76724      259.68521    -5     7    -7   0.01151   0.21017   0.19510  18.41405  86.88339  11.30289    8553.0   14554.8     1.19379     1.33850     1.09855     0.17757     0.00000   365.10944   260.13272            0.5           64.0         7309.9        13234.8           96.3     1       12.97908
      784.16534       52.51220   -10     6    -8   0.00744   0.15373   0.13654  21.05401 100.14771 -15.39904     769.0    3483.8     1.63543     1.88511    78.87860     0.12946     0.00000   784.08246    53.11590            0.5           61.2          608.4         2125.4           96.3     1        8.74762
      300.68076       93.01610    -6     8   -10   0.00490  -0.07841   0.11908  21.50107  97.34150  15.36381     765.0    2566.8     1.10561     1.80596   179.42073     0.10852     0.00000   301.01428    93.11184            0.5           61.1          587.6         1329.4           96.3     1        8.22731
      919.94574      273.23209    -9     5    -5   0.00814  -0.02980   0.26907  19.04790  86.63040 -23.42244    2955.0   10210.8     1.67819     1.89753    15.50918     0.17690     0.00000   920.14191   273.98047            0.4           58.4         2640.0         9525.6           96.3     1       11.74209
       27.58136      162.47684    -3     7    -9   0.00883  -0.17207   0.23353  18.62918  92.52765  30.33565    3696.0    8864.8     1.38066     1.63050   166.69385     0.16752     0.00000    27.95202   162.97047            0.4           50.8         2971.1         7578.7           96.3     1       12.54010
      822.87024       31.34408    -9     5    -7   0.01695   0.44630   0.05907  18.37775 101.32435 -17.70408    3512.0   10244.8     1.46614     1.88811    92.67832     0.20343     0.00000   823.13190    32.03335            0.4           42.9         2754.3         8639.4           96.3     1       13.05523
      261.67847       78.66647    -5     7    -9   0.00672  -0.16959   0.03735  18.81858  98.10389  17.71086    4779.0    8386.8     1.12020     1.33152   176.52553     0.14813     0.00000   262.00549    79.14019            0.4           42.7         4088.2         6909.4           96.3     1       12.17024
      698.73779      226.29637    -9     7    -7   0.01159   0.15900   0.28196  21.74493  89.24675 -10.22647     456.0    2074.8     1.29332     2.05787     5.75316     0.09698     0.00000   699.00885   227.04906            0.4           36.7          328.0          989.2           96.3     1        7.96152
      454.66473       47.76053    -7     7    -9   0.00590   0.10720   0.12542  19.86096 100.54192   5.70472    2436.0    5441.8     1.08543     1.51645     0.85677     0.15008     0.00000   454.99554    48.17950            0.4           35.2         2001.5         3732.9           96.3     1       10.38017
      971.57190       85.55812   -11     5    -7   0.00515  -0.14011  -0.05057  21.17407  97.69003 -26.07449     617.0    2406.8     1.35854     1.76674    13.02980     0.10933     0.00000   971.97589    86.06097            0.3           31.5          423.8         1152.5           96.3     1        8.60350
 dev1, dev2, pixdev=    0.0328000    0.0262900    0.0206900
matrix X  Y  Z -> h  k  l
   0.44379  -0.20020   0.24047
   0.19303   0.50360   0.06302
  -0.24626   0.03398   0.48275
matrix h  k  l -> X  Y  Z
   1.50513   0.65468  -0.83520
  -0.67898   1.70800   0.11523
   0.81556   0.21375   1.63729
Number of missing reflections:      11
x(exp)   y(exp)   h  k  l   energy(keV)   theta(deg)    strfac    theor_integr
      546.35632      225.65395    -4     4    -4  11.26805  89.16952        1.26000      452.52399
      546.35632      225.65395    -5     5    -5  14.08506  89.16952        0.67400      129.38400
      991.57898      299.80811    -8     4    -4  16.51922  85.24366        0.79700      189.47099
      546.35632      225.65395    -7     7    -7  19.71909  89.16952        0.41100       48.06600
      200.38446      748.62915    -2     6    -4  17.06944  60.06822        1.15300      765.56799
       62.29801      408.26184    -1     3    -3   7.85422  78.63280        1.28600      552.78601
        1.70917       14.92866    -2     4    -6  11.10783 100.55419        1.15300      363.42200
        7.13766      891.71045    -1     7    -5  21.00909  56.14851        0.67400      304.39001
      204.77789      323.68024    -4     8    -8  20.66566  83.04910        0.58900      107.12900
      634.55597      454.14087    -7     7    -5  20.85716  74.75619        0.46800       79.91400
      616.95367       49.10521    -9     7    -9  21.55713 100.58132        0.32400       28.72500
Rfactor:      0.57929999
Rotangle(deg):       35.22526
Rodrigues vector:       -0.01472        0.24667        0.19929       35.22526
Quaternion:        0.95312       -0.01403        0.23511        0.18995
Euler angles:        4.02580       24.39485       23.50736
orsnr, orsirxy, orsirxz, orsiryz:  27.24574 -24.28066 -27.02647   4.02580
 Rotation matrix, unit cell to sample:
   0.81728   0.35549  -0.45351
  -0.36869   0.92745   0.06257
   0.44285   0.11607   0.88905
 Rotation matrix, sample to unit cell:
   0.81728  -0.36869   0.44285
   0.35549   0.92745   0.11607
  -0.45351   0.06257   0.88905
Sum of integrated intensities:  1070907.62500
Average integrated intensity per peak:    35696.92188
scale:    0.0101000
depth:    -0.837660
Unindexed reflections:       0
Xstage position:      6000.00
Ystage position:      10760.0
X map position:     120
Y map position:       1
Izero:       2625.0000
Channel A:      0.00000000
Channel B:      0.00000000
Channel C:      0.00000000
Channel D:      0.00000000
Channel E:      0.00000000
Exposure:      2.50000
Average intensity of the image :       105.29862
Average background of the image:       103.73485
